,TP9,AF7,AF8,TP10,Right AUX,timestamps
0,35.644531,15.625000,19.042969,131.835938,16.601562,0.000000
1,624.511719,-0.488281,8.789062,409.179688,700.195312,0.003906
2,383.789062,11.230469,29.785156,144.042969,491.699219,0.007812
3,-308.105469,32.714844,53.710938,-270.507812,-277.832031,0.011719
4,-555.175781,38.574219,54.199219,-304.199219,-629.394531,0.015625
5,-56.640625,25.878906,28.808594,70.312500,-50.781250,0.019531
6,589.843750,23.437500,17.089844,395.507812,716.308594,0.023438
7,444.824219,30.273438,27.832031,182.617188,625.976562,0.027344
8,-218.261719,34.179688,48.339844,-238.281250,-163.574219,0.031250
9,-0.488281,-0.488281,-0.488281,-0.488281,-0.488281,0.035156
10,0.488281,0.000000,-0.488281,0.488281,-0.976562,0.039062
11,14.160156,0.000000,0.488281,5.859375,29.296875,0.042969
12,-55.664062,-0.488281,-0.976562,-29.296875,-85.449219,0.054216
13,229.492188,2.441406,4.882812,116.699219,368.652344,0.058122
14,210.449219,9.277344,31.738281,38.574219,652.343750,0.062028
15,-397.949219,7.812500,48.339844,-315.429688,-11.230469,0.065934
16,-423.828125,8.300781,41.992188,-237.792969,-143.066406,0.069841
17,92.773438,9.765625,31.738281,128.906250,437.011719,0.073747
18,524.414062,-6.835938,22.460938,318.847656,985.351562,0.077653
19,234.863281,-4.882812,30.273438,40.039062,665.039062,0.081559
20,-335.937500,7.812500,45.410156,-286.621094,-90.820312,0.085466
21,-433.105469,6.347656,42.968750,-238.769531,-305.664062,0.089372
22,18.554688,17.089844,33.691406,91.796875,264.648438,0.093278
23,523.437500,13.671875,27.343750,337.890625,880.859375,0.097184
24,328.613281,11.230469,29.296875,116.210938,666.015625,0.094835
25,-228.027344,14.648438,48.828125,-227.050781,-61.523438,0.098742
26,-423.828125,19.531250,52.734375,-241.699219,-353.027344,0.102648
27,-28.320312,38.085938,27.343750,61.035156,125.000000,0.106554
28,527.343750,40.527344,10.742188,339.355469,751.953125,0.110460
29,427.246094,32.714844,25.878906,180.664062,650.878906,0.114367
30,-119.628906,40.527344,52.246094,-163.574219,-66.406250,0.118273
31,-417.968750,68.359375,46.386719,-253.417969,-486.816406,0.122179
32,-89.355469,70.312500,6.347656,17.578125,-48.339844,0.126085
33,479.980469,62.988281,-8.789062,324.218750,679.687500,0.129992
34,461.914062,67.382812,0.976562,209.960938,692.382812,0.133898
35,-74.707031,71.289062,6.835938,-146.972656,-9.765625,0.137804
36,-439.941406,78.125000,13.183594,-275.390625,-527.343750,0.154181
37,-143.066406,72.265625,6.347656,-8.789062,-201.660156,0.158087
38,439.941406,54.687500,-2.929688,313.476562,541.992188,0.161994
39,517.578125,47.363281,-3.417969,257.324219,701.171875,0.165900
40,14.648438,46.386719,2.441406,-91.308594,50.781250,0.169806
41,-424.804688,51.757812,13.671875,-282.226562,-553.222656,0.173712
42,-196.777344,39.062500,8.300781,-50.781250,-272.949219,0.177619
43,375.000000,13.671875,-1.464844,289.550781,465.332031,0.181525
44,551.269531,14.160156,1.953125,292.480469,707.031250,0.185431
45,104.003906,30.761719,16.113281,-46.875000,160.644531,0.189337
46,-391.601562,23.925781,22.949219,-287.109375,-535.156250,0.193244
47,-250.000000,11.718750,13.671875,-100.097656,-427.734375,0.197150
48,308.593750,22.460938,-0.976562,241.210938,312.500000,0.194267
49,592.773438,29.785156,-9.277344,301.757812,725.585938,0.198173
50,175.781250,33.691406,-1.953125,-26.367188,201.660156,0.202080
51,-366.699219,27.343750,15.625000,-304.199219,-548.828125,0.205986
52,-283.691406,34.179688,17.089844,-150.390625,-491.699219,0.209892
53,232.421875,47.851562,-2.441406,189.453125,219.726562,0.213798
54,589.843750,43.945312,-8.300781,325.195312,721.191406,0.217705
55,248.535156,38.574219,9.277344,38.574219,288.085938,0.221611
56,-326.660156,26.855469,20.996094,-275.878906,-418.457031,0.225517
57,-344.726562,29.785156,15.625000,-182.617188,-476.074219,0.229423
58,150.878906,38.574219,4.394531,163.085938,144.042969,0.233330
59,584.960938,40.039062,4.882812,361.328125,712.890625,0.237236
60,294.921875,50.292969,17.578125,99.609375,354.492188,0.234174
61,-280.761719,58.105469,30.761719,-234.375000,-375.976562,0.238080
62,-385.742188,45.898438,30.761719,-195.800781,-514.160156,0.241986
63,60.058594,33.691406,12.695312,134.277344,105.468750,0.245893
64,564.941406,16.113281,15.625000,379.394531,708.007812,0.249799
65,367.187500,15.136719,34.667969,164.062500,437.500000,0.253705
66,-218.750000,44.433594,40.039062,-195.312500,-301.757812,0.257611
67,-428.710938,64.453125,39.062500,-231.445312,-598.144531,0.261518
68,-17.578125,57.128906,25.878906,82.031250,-54.687500,0.265424
69,519.042969,32.226562,8.300781,349.121094,635.253906,0.269330
70,408.203125,15.136719,25.878906,179.199219,475.585938,0.273236
71,-145.507812,10.742188,39.550781,-171.875000,-218.261719,0.277143
72,-442.871094,41.503906,32.226562,-274.902344,-603.515625,0.274160
73,-94.726562,68.359375,21.972656,15.136719,-176.757812,0.278066
74,463.378906,35.156250,12.207031,320.312500,531.738281,0.281973
75,442.871094,21.484375,19.042969,194.335938,581.542969,0.285879
76,-74.707031,39.062500,33.691406,-152.832031,-105.957031,0.289785
77,-439.941406,41.503906,49.316406,-292.968750,-651.855469,0.293691
78,-169.921875,36.132812,32.714844,-35.644531,-270.019531,0.297598
79,396.484375,34.179688,11.230469,289.550781,462.890625,0.301504
80,474.121094,29.296875,22.949219,229.492188,574.707031,0.305410
81,-23.925781,29.785156,34.667969,-116.210938,-45.898438,0.309316
82,-465.820312,50.292969,41.015625,-308.105469,-597.167969,0.313223
83,-239.257812,42.968750,34.667969,-70.800781,-362.304688,0.317129
84,336.914062,19.042969,17.578125,274.902344,371.582031,0.334184
85,508.789062,15.625000,16.113281,278.808594,666.992188,0.338090
86,49.804688,43.457031,32.714844,-54.687500,94.726562,0.341996
87,-442.871094,41.503906,40.527344,-299.804688,-582.519531,0.345903
88,-296.386719,-0.488281,20.996094,-117.675781,-414.062500,0.349809
89,255.859375,4.394531,16.113281,241.210938,317.871094,0.353715
90,538.574219,24.902344,24.414062,314.453125,683.593750,0.357621
91,127.441406,35.644531,28.320312,-12.207031,190.429688,0.361528
92,-424.804688,43.945312,35.644531,-294.433594,-482.421875,0.365434
93,-352.539062,35.156250,29.785156,-149.414062,-422.851562,0.369340
94,176.757812,27.832031,18.066406,197.753906,216.796875,0.373246
95,543.945312,27.832031,14.160156,330.078125,693.847656,0.377153
96,199.218750,28.808594,25.390625,39.550781,276.367188,0.374205
97,-369.628906,24.902344,44.921875,-275.390625,-466.796875,0.378111
98,-375.976562,22.949219,36.621094,-184.082031,-518.066406,0.382017
99,121.093750,24.414062,19.531250,162.597656,104.980469,0.385924
100,557.617188,20.019531,16.113281,344.238281,650.878906,0.389830
101,285.156250,30.273438,26.367188,84.960938,331.542969,0.393736
102,-297.851562,33.203125,38.574219,-254.394531,-406.250000,0.397642
103,-411.621094,21.972656,39.062500,-227.050781,-623.535156,0.401549
104,48.828125,20.507812,36.132812,123.535156,-24.902344,0.405455
105,544.433594,24.414062,28.808594,351.074219,647.949219,0.409361
106,315.429688,25.878906,31.738281,92.285156,392.578125,0.413267
107,-270.507812,27.832031,38.574219,-258.300781,-326.660156,0.417174
108,-464.355469,34.179688,31.738281,-274.414062,-594.238281,0.414096
109,-51.269531,29.785156,13.183594,44.433594,-93.261719,0.418003
110,499.023438,20.507812,6.347656,334.960938,562.011719,0.421909
111,374.511719,17.578125,19.042969,164.550781,476.562500,0.425815
112,-189.941406,20.507812,24.902344,-197.753906,-187.011719,0.429721
113,-479.003906,27.343750,31.250000,-281.738281,-625.488281,0.433628
114,-118.164062,22.949219,29.785156,16.601562,-233.886719,0.437534
115,447.753906,15.625000,18.554688,322.265625,531.738281,0.441440
116,406.738281,20.996094,17.578125,194.335938,558.593750,0.445346
117,-128.906250,22.949219,28.320312,-162.597656,-157.226562,0.449253
118,-482.910156,34.179688,33.203125,-296.875000,-660.644531,0.453159
119,-189.941406,34.179688,19.042969,-33.203125,-275.390625,0.457065
120,381.347656,21.972656,2.441406,291.503906,470.214844,0.474161
121,463.867188,27.343750,11.230469,235.839844,607.421875,0.478067
122,-25.878906,39.062500,33.691406,-108.398438,-17.578125,0.481973
123,-476.074219,37.109375,33.203125,-313.476562,-604.003906,0.485879
124,-243.652344,37.597656,16.113281,-78.125000,-339.843750,0.489786
125,343.261719,46.875000,9.277344,272.460938,383.300781,0.493692
126,507.324219,43.945312,12.695312,272.460938,621.582031,0.497598
127,45.410156,40.039062,23.437500,-72.265625,23.437500,0.501504
128,-439.941406,44.921875,35.156250,-312.500000,-616.699219,0.505411
129,-277.832031,41.503906,24.902344,-110.351562,-403.320312,0.509317
130,280.273438,21.972656,9.765625,233.886719,319.335938,0.513223
131,547.363281,36.132812,12.695312,297.363281,647.949219,0.517129
132,136.718750,69.335938,27.832031,-20.507812,151.855469,0.514031
133,-413.574219,71.777344,41.992188,-303.710938,-532.714844,0.517938
134,-332.519531,55.664062,35.644531,-153.320312,-534.667969,0.521844
135,200.195312,41.015625,20.019531,200.195312,138.671875,0.525750
136,547.363281,33.691406,15.136719,326.660156,652.343750,0.529656
137,188.476562,35.156250,26.855469,23.437500,242.675781,0.533563
138,-392.578125,41.992188,41.503906,-285.156250,-486.328125,0.537469
139,-395.019531,42.968750,33.203125,-179.687500,-560.058594,0.541375
140,97.167969,33.203125,15.625000,153.808594,111.328125,0.545281
141,515.136719,21.972656,15.625000,333.984375,735.839844,0.549188
142,222.656250,20.019531,28.808594,68.359375,375.976562,0.553094
143,-370.117188,22.460938,35.644531,-272.460938,-410.156250,0.557000
144,-451.171875,17.089844,33.203125,-221.191406,-569.335938,0.556059
145,22.949219,15.136719,24.414062,117.187500,25.390625,0.559965
146,514.160156,24.414062,19.042969,343.750000,624.511719,0.563871
147,304.199219,25.390625,27.832031,109.863281,403.320312,0.567777
148,-265.625000,31.738281,45.898438,-234.375000,-336.914062,0.571684
149,-449.218750,40.527344,48.339844,-241.210938,-676.757812,0.575590
150,-19.042969,33.691406,29.785156,75.683594,-153.808594,0.579496
151,536.621094,33.203125,20.507812,347.167969,562.500000,0.583402
152,396.972656,38.085938,28.808594,161.132812,460.937500,0.587309
153,-168.945312,48.828125,43.945312,-194.824219,-277.832031,0.591215
154,-439.453125,50.292969,48.339844,-266.601562,-703.125000,0.595121
155,-76.171875,33.203125,33.691406,29.785156,-194.335938,0.599027
156,492.675781,28.808594,20.507812,333.984375,552.734375,0.614653
157,434.082031,38.085938,28.808594,196.289062,530.761719,0.618559
158,-119.628906,40.527344,45.410156,-158.203125,-116.699219,0.622466
159,-482.421875,27.343750,49.804688,-289.550781,-608.886719,0.626372
160,-177.246094,14.648438,36.621094,-24.414062,-230.468750,0.630278
161,412.109375,14.648438,22.460938,309.082031,510.253906,0.634184
162,462.402344,20.996094,31.250000,231.445312,569.335938,0.638091
163,-48.828125,33.691406,44.921875,-121.582031,-49.804688,0.641997
164,-476.562500,37.597656,46.386719,-296.875000,-617.187500,0.645903
165,-241.699219,12.207031,33.203125,-57.128906,-355.957031,0.649809
166,342.773438,-3.906250,20.996094,284.179688,399.414062,0.653716
167,505.371094,5.859375,23.437500,275.878906,666.992188,0.657622
168,47.851562,14.160156,37.597656,-67.382812,68.847656,0.654101
169,-429.687500,19.531250,40.039062,-304.687500,-606.933594,0.658008
170,-247.558594,29.296875,22.949219,-91.308594,-425.292969,0.661914
171,328.125000,28.808594,18.554688,273.925781,297.851562,0.665820
172,563.476562,13.671875,29.785156,314.453125,669.921875,0.669726
173,124.023438,8.300781,39.550781,-26.367188,145.996094,0.673633
174,-416.015625,7.812500,47.363281,-305.175781,-587.890625,0.677539
175,-323.730469,4.394531,42.480469,-151.367188,-515.136719,0.681445
176,196.289062,4.394531,30.761719,190.429688,202.148438,0.685351
177,541.015625,0.488281,33.203125,309.570312,687.500000,0.689258
178,200.195312,9.765625,44.433594,25.878906,232.910156,0.693164
179,-387.207031,18.554688,53.710938,-294.921875,-485.839844,0.697070
180,-391.601562,6.347656,50.781250,-187.500000,-548.828125,0.694180
181,110.839844,-8.300781,36.132812,161.132812,98.144531,0.698086
182,513.183594,-18.066406,27.343750,316.894531,720.703125,0.701993
183,234.863281,-13.671875,41.992188,62.500000,363.281250,0.705899
184,-329.589844,-5.371094,58.105469,-259.765625,-397.460938,0.709805
185,-423.339844,-4.394531,55.175781,-219.238281,-550.292969,0.713711
186,36.621094,-9.277344,39.550781,111.816406,60.058594,0.717618
187,514.648438,-14.160156,28.320312,335.937500,665.039062,0.721524
188,294.921875,-3.417969,37.597656,113.769531,389.160156,0.725430
189,-284.667969,6.347656,49.804688,-226.562500,-336.914062,0.729336
190,-469.238281,8.300781,53.710938,-231.445312,-625.000000,0.733243
191,-46.386719,-0.976562,43.945312,93.261719,-85.937500,0.737149
192,486.816406,-7.324219,26.855469,354.492188,607.910156,0.755198
193,343.261719,7.324219,32.226562,163.085938,489.257812,0.759104
194,-208.007812,20.507812,48.828125,-187.500000,-228.515625,0.763011
195,-475.097656,21.484375,48.828125,-262.207031,-637.207031,0.766917
196,-118.164062,8.300781,31.738281,27.343750,-181.640625,0.770823
197,450.683594,4.882812,18.554688,323.242188,518.066406,0.774729
198,406.250000,14.160156,27.832031,191.406250,539.062500,0.778636
199,-114.746094,21.972656,42.480469,-153.808594,-68.847656,0.782542
200,-465.332031,24.414062,42.968750,-292.480469,-583.496094,0.786448
201,-171.875000,6.835938,27.343750,-21.972656,-215.332031,0.790354
202,406.250000,-4.882812,16.113281,306.640625,534.179688,0.794261
203,458.007812,6.347656,25.390625,229.492188,576.171875,0.798167
204,-41.015625,16.113281,42.480469,-108.886719,-71.289062,0.796039
205,-467.285156,12.695312,49.316406,-289.550781,-607.910156,0.799946
206,-229.980469,5.371094,34.179688,-55.664062,-311.035156,0.803852
207,355.468750,1.464844,18.066406,286.132812,421.386719,0.807758
208,502.441406,7.812500,20.507812,270.507812,685.058594,0.811664
209,37.597656,16.601562,34.667969,-70.800781,95.703125,0.815571
210,-437.500000,17.578125,41.992188,-296.875000,-613.769531,0.819477
211,-264.160156,11.230469,31.250000,-97.167969,-455.078125,0.823383
212,303.710938,9.765625,20.996094,250.976562,290.039062,0.827289
213,556.152344,5.859375,22.949219,307.617188,636.230469,0.831196
214,133.789062,21.972656,39.062500,-13.671875,111.816406,0.835102
215,-398.437500,28.808594,46.386719,-286.132812,-570.312500,0.839008
216,-301.757812,6.347656,37.597656,-127.929688,-448.730469,0.834073
217,232.910156,14.648438,33.203125,224.609375,240.722656,0.837980
218,568.359375,21.972656,33.691406,340.820312,663.574219,0.841886
219,203.613281,16.113281,35.644531,31.738281,200.683594,0.845792
220,-371.582031,24.902344,42.480469,-279.785156,-537.597656,0.849698
221,-361.328125,21.972656,45.410156,-164.062500,-562.011719,0.853605
222,139.648438,12.207031,30.761719,184.082031,87.890625,0.857511
223,546.875000,10.253906,25.390625,353.027344,652.343750,0.861417
224,246.093750,21.972656,39.550781,73.242188,312.988281,0.865323
225,-324.218750,45.410156,51.269531,-250.488281,-422.363281,0.869230
226,-396.972656,39.550781,46.875000,-191.406250,-579.101562,0.873136
227,61.523438,21.484375,29.785156,137.695312,34.667969,0.877042
228,540.039062,20.507812,21.972656,354.003906,666.015625,0.894031
229,323.242188,11.230469,28.808594,117.187500,419.433594,0.897937
230,-254.882812,13.183594,39.062500,-228.515625,-302.246094,0.901844
231,-426.269531,30.761719,41.015625,-233.886719,-598.144531,0.905750
232,9.277344,36.621094,31.738281,93.261719,-71.289062,0.909656
233,529.296875,36.132812,22.949219,351.562500,618.164062,0.913562
234,379.394531,40.527344,26.367188,157.714844,511.230469,0.917469
235,-181.640625,35.156250,38.574219,-196.777344,-199.218750,0.921375
236,-452.148438,38.574219,47.851562,-266.601562,-622.558594,0.925281
237,-82.031250,40.527344,32.714844,37.597656,-161.132812,0.929187
238,480.468750,25.878906,20.996094,333.984375,559.082031,0.933094
239,417.968750,26.855469,28.320312,187.500000,517.089844,0.937000
240,-126.464844,36.132812,41.015625,-165.039062,-170.410156,0.934105
241,-475.097656,35.156250,50.781250,-277.832031,-625.976562,0.938012
242,-166.503906,30.273438,36.132812,-3.417969,-232.910156,0.941918
243,406.250000,24.902344,19.531250,312.988281,482.910156,0.945824
244,443.847656,26.855469,25.390625,237.304688,599.609375,0.949730
245,-57.128906,36.621094,40.039062,-104.003906,-41.503906,0.953637
246,-468.261719,46.875000,51.269531,-279.296875,-640.625000,0.957543
247,-219.238281,41.503906,40.039062,-35.156250,-334.472656,0.961449
248,367.187500,28.808594,14.160156,301.757812,405.273438,0.965355
249,532.714844,38.574219,11.718750,286.132812,621.582031,0.969262
250,58.593750,39.062500,30.761719,-54.199219,35.156250,0.973168
251,-437.011719,28.320312,50.292969,-285.156250,-595.214844,0.977074
252,-265.625000,28.808594,42.480469,-92.773438,-388.671875,0.975936
253,292.480469,22.949219,24.414062,244.628906,348.144531,0.979843
254,524.902344,19.531250,28.320312,295.410156,692.382812,0.983749
255,97.656250,28.320312,37.109375,-31.250000,159.667969,0.987655
256,-436.035156,27.343750,44.433594,-299.804688,-508.300781,0.991561
257,-337.890625,13.671875,41.503906,-136.230469,-424.316406,0.995468
258,204.589844,7.812500,27.832031,207.519531,243.652344,0.999374
259,538.085938,18.066406,27.832031,320.312500,683.105469,1.003280
260,161.132812,23.925781,40.527344,13.671875,256.835938,1.007186
261,-403.808594,34.667969,52.246094,-285.156250,-464.355469,1.011093
262,-385.742188,35.156250,39.550781,-169.921875,-528.320312,1.014999
263,111.816406,21.972656,22.949219,167.968750,136.230469,1.018905
264,517.089844,20.996094,22.460938,338.378906,694.335938,1.034071
265,204.101562,31.250000,36.132812,70.312500,321.777344,1.037977
266,-389.648438,41.503906,54.199219,-255.859375,-419.921875,1.041884
267,-449.218750,35.156250,52.246094,-203.613281,-570.800781,1.045790
268,32.714844,26.367188,38.085938,132.812500,40.527344,1.049696
269,509.765625,28.320312,32.714844,350.097656,632.324219,1.053602
270,276.855469,29.785156,40.039062,101.562500,360.839844,1.057509
271,-306.152344,29.785156,47.363281,-247.070312,-355.468750,1.061415
272,-459.472656,32.226562,49.316406,-242.187500,-589.843750,1.065321
273,-18.554688,25.390625,34.667969,80.566406,-42.480469,1.069227
274,511.718750,18.066406,24.414062,333.496094,617.187500,1.073134
275,355.468750,26.855469,32.714844,137.695312,455.078125,1.077040
276,-208.496094,41.015625,44.921875,-210.937500,-271.972656,1.074240
277,-466.308594,35.644531,42.480469,-281.250000,-635.742188,1.078146
278,-89.843750,27.832031,27.832031,16.601562,-181.640625,1.082053
279,475.097656,26.367188,15.136719,313.964844,536.621094,1.085959
280,396.972656,22.460938,21.972656,163.085938,531.250000,1.089865
281,-150.878906,20.996094,39.062500,-190.429688,-160.644531,1.093771
282,-485.351562,34.667969,45.898438,-303.222656,-641.601562,1.097678
283,-163.085938,31.250000,30.273438,-24.902344,-232.421875,1.101584
284,417.968750,12.695312,21.484375,299.804688,492.675781,1.105490
285,442.382812,20.507812,29.296875,214.355469,571.777344,1.109396
286,-72.753906,36.621094,39.550781,-133.300781,-70.312500,1.113303
287,-496.582031,35.644531,47.363281,-304.199219,-640.625000,1.117209
288,-246.582031,37.109375,40.527344,-57.128906,-333.984375,1.153385
289,333.496094,29.785156,19.042969,277.343750,413.574219,1.157291
290,455.078125,22.949219,19.042969,252.929688,624.023438,1.161198
291,-19.042969,34.667969,40.527344,-86.425781,16.113281,1.165104
292,-480.468750,47.363281,55.664062,-305.175781,-628.906250,1.169010
293,-284.179688,53.710938,49.316406,-90.820312,-411.132812,1.172916
294,280.273438,34.179688,26.855469,250.000000,331.054688,1.176823
295,508.300781,26.367188,24.902344,272.460938,629.394531,1.180729
296,72.753906,39.550781,40.039062,-63.476562,70.312500,1.184635
297,-448.242188,31.738281,40.527344,-322.753906,-587.890625,1.188541
298,-317.871094,18.554688,29.296875,-154.296875,-453.125000,1.192448
299,222.167969,28.320312,20.996094,191.894531,259.765625,1.196354
300,540.039062,42.968750,15.625000,292.968750,719.726562,1.195325
301,177.246094,53.710938,28.808594,-11.718750,255.859375,1.199231
302,-375.976562,62.500000,43.945312,-310.546875,-479.492188,1.203138
303,-355.468750,48.828125,33.691406,-192.871094,-476.074219,1.207044
304,147.460938,38.574219,21.972656,151.367188,180.664062,1.210950
305,536.621094,35.644531,13.183594,312.500000,704.101562,1.214856
306,221.679688,41.992188,19.531250,34.179688,302.734375,1.218763
307,-348.632812,54.199219,38.574219,-278.320312,-452.148438,1.222669
308,-404.785156,48.339844,40.527344,-208.984375,-572.753906,1.226575
309,49.804688,31.250000,23.925781,112.304688,56.152344,1.230481
310,503.417969,27.343750,18.554688,318.359375,655.761719,1.234388
311,265.136719,34.667969,30.273438,72.753906,348.632812,1.238294
312,-311.035156,34.667969,39.062500,-264.648438,-398.437500,1.214844
313,-463.378906,30.761719,37.109375,-254.882812,-635.253906,1.218751
314,-32.714844,35.156250,23.437500,68.359375,-62.011719,1.222657
315,484.375000,42.968750,17.578125,331.054688,598.144531,1.226563
316,317.871094,36.132812,27.832031,131.835938,412.109375,1.230469
317,-240.722656,33.691406,42.480469,-217.285156,-287.109375,1.234376
318,-480.957031,38.085938,52.246094,-263.671875,-625.000000,1.238282
319,-84.472656,20.996094,49.316406,65.429688,-160.156250,1.242188
320,484.375000,17.578125,34.667969,364.746094,547.363281,1.246094
321,381.835938,31.738281,25.878906,180.175781,504.394531,1.250001
322,-162.597656,44.921875,32.714844,-187.988281,-188.964844,1.253907
323,-471.191406,51.757812,43.457031,-292.480469,-631.347656,1.257813
324,-156.738281,44.921875,29.296875,-8.300781,-216.796875,1.256361
325,413.085938,32.714844,10.253906,297.851562,498.046875,1.260267
326,441.406250,32.714844,14.648438,200.195312,582.031250,1.264174
327,-66.406250,47.851562,28.320312,-149.414062,-62.011719,1.268080
328,-452.148438,56.152344,41.503906,-314.453125,-662.597656,1.271986
329,-182.128906,63.476562,33.203125,-53.222656,-335.449219,1.275892
330,369.628906,49.316406,9.765625,268.066406,424.316406,1.279799
331,479.003906,32.226562,6.835938,218.750000,589.355469,1.283705
332,21.484375,46.875000,25.878906,-109.863281,-11.718750,1.287611
333,-439.941406,59.570312,38.574219,-317.871094,-616.210938,1.291517
334,-252.929688,61.035156,36.132812,-101.074219,-392.089844,1.295424
335,307.128906,44.433594,21.972656,250.488281,314.941406,1.299330
336,512.207031,24.902344,13.671875,276.855469,650.878906,1.314253
337,77.636719,37.597656,27.343750,-50.292969,139.648438,1.318159
338,-429.199219,46.875000,38.085938,-309.082031,-528.808594,1.322066
339,-311.035156,24.414062,29.785156,-138.671875,-407.714844,1.325972
340,216.308594,8.789062,17.089844,209.960938,266.601562,1.329878
341,525.878906,17.578125,21.972656,302.246094,671.875000,1.333784
342,154.296875,38.574219,39.062500,-5.371094,207.031250,1.337691
343,-398.925781,41.015625,51.269531,-298.339844,-498.535156,1.341597
344,-352.539062,31.250000,41.015625,-169.921875,-499.023438,1.345503
345,158.691406,27.343750,20.019531,176.757812,121.093750,1.349409
346,543.945312,16.113281,10.742188,326.171875,639.160156,1.353316
347,226.074219,10.253906,20.996094,39.062500,283.691406,1.357222
348,-343.261719,20.507812,36.132812,-285.156250,-456.054688,1.354098
349,-383.789062,32.226562,33.203125,-210.937500,-594.238281,1.358004
350,94.726562,30.273438,18.066406,131.347656,27.343750,1.361910
351,550.781250,25.878906,9.277344,337.890625,637.207031,1.365817
352,303.222656,40.039062,25.390625,89.843750,333.984375,1.369723
353,-280.761719,45.898438,41.992188,-253.417969,-404.296875,1.373629
354,-430.664062,29.296875,37.109375,-243.652344,-622.558594,1.377535
355,2.929688,22.949219,21.484375,80.566406,-41.503906,1.381442
356,517.578125,19.042969,12.695312,328.125000,642.578125,1.385348
357,348.144531,26.855469,24.414062,118.164062,448.242188,1.389254
358,-222.656250,41.015625,40.527344,-233.398438,-292.968750,1.393160
359,-455.566406,39.550781,42.968750,-274.414062,-641.113281,1.397067
360,-65.917969,31.250000,27.343750,42.480469,-119.140625,1.414136
361,484.375000,24.902344,17.089844,329.101562,625.000000,1.418042
362,390.136719,21.484375,24.902344,169.921875,544.433594,1.421948
363,-155.761719,13.183594,36.132812,-181.640625,-161.621094,1.425854
364,-474.121094,19.042969,43.945312,-287.109375,-593.750000,1.429761
365,-140.625000,20.019531,36.621094,2.929688,-194.824219,1.433667
366,440.429688,17.089844,26.855469,326.171875,524.414062,1.437573
367,438.476562,21.972656,33.691406,216.796875,586.425781,1.441479
368,-88.867188,19.531250,37.597656,-145.507812,-76.171875,1.445386
369,-480.468750,18.554688,40.527344,-304.199219,-607.421875,1.449292
370,-202.148438,17.578125,30.273438,-43.945312,-257.812500,1.453198
371,385.253906,13.671875,16.601562,288.085938,457.031250,1.457104
372,488.281250,19.042969,17.578125,237.304688,605.468750,1.454126
373,26.367188,32.714844,17.578125,-111.328125,26.367188,1.458032
374,-395.996094,54.687500,23.925781,-302.246094,-556.640625,1.461939
375,-199.707031,45.410156,27.343750,-76.660156,-356.933594,1.465845
376,333.496094,20.507812,17.578125,239.746094,345.214844,1.469751
377,527.832031,18.066406,17.089844,269.042969,656.250000,1.473657
378,83.984375,20.507812,36.132812,-48.339844,119.140625,1.477564
379,-447.753906,20.019531,47.363281,-312.500000,-558.593750,1.481470
380,-319.824219,18.554688,39.062500,-123.535156,-438.964844,1.485376
381,225.097656,5.859375,24.414062,228.515625,296.386719,1.489282
382,521.972656,-6.347656,26.367188,314.941406,717.285156,1.493189
383,124.511719,7.812500,45.410156,-6.835938,232.421875,1.497095
384,-432.617188,14.160156,61.035156,-302.246094,-520.996094,1.496084
385,-374.023438,-12.695312,47.851562,-154.785156,-529.296875,1.499990
386,140.625000,-31.738281,31.250000,193.847656,149.414062,1.503897
387,517.578125,-28.320312,29.785156,336.425781,663.085938,1.507803
388,182.128906,-12.207031,41.503906,40.039062,285.644531,1.511709
389,-390.625000,5.371094,63.964844,-281.738281,-463.378906,1.515615
390,-416.992188,6.347656,61.035156,-190.917969,-597.656250,1.519522
391,73.242188,6.347656,41.015625,147.949219,16.113281,1.523428
392,516.601562,1.953125,31.250000,339.843750,624.511719,1.527334
393,243.164062,7.324219,40.039062,74.707031,349.609375,1.531240
394,-341.796875,23.437500,50.292969,-269.531250,-387.695312,1.535147
395,-462.890625,21.484375,43.945312,-244.140625,-603.027344,1.539053
396,-5.859375,17.089844,30.761719,86.914062,-5.371094,1.554371
397,513.671875,23.437500,24.902344,337.890625,634.277344,1.558277
398,327.148438,21.972656,27.832031,124.511719,471.191406,1.562183
399,-255.371094,14.648438,37.597656,-236.816406,-272.460938,1.566089
400,-473.632812,18.554688,41.503906,-276.367188,-640.625000,1.569996
401,-69.335938,15.136719,29.296875,44.921875,-98.144531,1.573902
402,485.839844,3.906250,15.625000,328.125000,604.980469,1.577808
403,387.207031,16.601562,21.972656,158.691406,501.953125,1.581714
404,-176.757812,36.621094,34.667969,-199.707031,-231.933594,1.585621
405,-487.792969,42.480469,40.527344,-294.433594,-662.597656,1.589527
406,-130.859375,30.761719,36.132812,8.300781,-220.214844,1.593433
407,449.218750,21.972656,20.507812,325.683594,525.878906,1.597339
408,437.500000,31.738281,20.996094,204.589844,600.097656,1.595235
409,-84.960938,42.480469,43.945312,-150.390625,-101.074219,1.599142
410,-484.863281,33.203125,46.875000,-304.199219,-673.339844,1.603048
411,-204.101562,20.996094,31.250000,-37.597656,-319.335938,1.606954
412,387.207031,15.136719,22.949219,307.617188,462.402344,1.610860
413,471.191406,12.207031,27.832031,259.765625,640.136719,1.614767
414,-26.855469,19.531250,44.433594,-93.261719,-16.601562,1.618673
415,-480.468750,25.390625,52.246094,-297.851562,-671.875000,1.622579
416,-258.789062,24.902344,39.062500,-63.964844,-422.851562,1.626485
417,329.101562,21.484375,25.390625,284.667969,346.191406,1.630392
418,521.972656,18.554688,29.785156,296.875000,626.464844,1.634298
419,63.476562,21.484375,45.410156,-42.480469,67.382812,1.638204
420,-444.335938,25.878906,58.105469,-292.480469,-584.472656,1.634128
421,-289.062500,20.019531,46.875000,-98.632812,-461.914062,1.638034
422,276.855469,13.671875,30.273438,256.835938,258.300781,1.641941
423,558.593750,13.671875,30.273438,327.636719,693.847656,1.645847
424,147.460938,31.738281,40.527344,-2.929688,191.406250,1.649753
425,-408.203125,37.597656,50.292969,-297.363281,-556.640625,1.653659
426,-336.914062,21.484375,42.480469,-153.808594,-505.859375,1.657566
427,197.753906,23.437500,24.414062,201.660156,224.121094,1.661472
428,566.894531,19.531250,17.578125,336.425781,706.542969,1.665378
429,208.496094,15.625000,30.761719,35.156250,259.765625,1.669284
430,-367.675781,28.320312,50.292969,-288.085938,-491.210938,1.673191
431,-362.792969,37.109375,41.992188,-189.941406,-547.851562,1.677097
432,142.578125,29.296875,17.089844,173.828125,138.183594,1.694155
433,557.617188,14.160156,17.578125,341.308594,726.562500,1.698061
434,257.812500,14.160156,36.132812,50.292969,365.722656,1.701968
435,-327.636719,25.390625,46.875000,-277.343750,-403.320312,1.705874
436,-445.312500,25.390625,41.503906,-237.304688,-595.703125,1.709780
437,11.718750,19.042969,24.902344,96.191406,-31.250000,1.713686
438,504.882812,12.695312,15.625000,330.566406,615.234375,1.717593
439,299.804688,24.902344,27.832031,100.585938,379.882812,1.721499
440,-270.507812,40.039062,41.015625,-245.117188,-343.750000,1.725405
441,-483.886719,31.250000,38.085938,-270.996094,-607.421875,1.729311
442,-69.335938,20.507812,20.996094,51.269531,-78.125000,1.733218
443,484.863281,23.925781,10.253906,336.425781,611.328125,1.737124
444,357.421875,21.484375,18.554688,157.226562,498.535156,1.735937
445,-197.753906,17.578125,34.667969,-200.683594,-234.375000,1.739843
446,-488.281250,27.832031,41.015625,-291.992188,-661.132812,1.743749
447,-120.605469,29.296875,30.273438,4.882812,-222.167969,1.747655
448,454.101562,23.437500,18.066406,318.359375,474.121094,1.751562
449,422.851562,20.507812,20.019531,198.242188,501.464844,1.755468
450,-100.585938,31.250000,34.667969,-152.832031,-139.160156,1.759374
451,-480.957031,43.945312,40.039062,-305.175781,-660.644531,1.763280
452,-187.988281,33.203125,23.437500,-44.433594,-286.621094,1.767187
453,397.460938,19.042969,15.136719,295.898438,493.652344,1.771093
454,463.378906,19.042969,20.507812,228.515625,589.355469,1.774999
455,-38.574219,22.949219,32.714844,-128.417969,-59.570312,1.778905
456,-480.957031,23.925781,41.015625,-317.871094,-604.003906,1.774162
457,-250.976562,34.179688,34.179688,-78.613281,-308.593750,1.778068
458,324.707031,35.644531,22.949219,267.578125,417.480469,1.781975
459,493.652344,32.714844,18.066406,264.160156,648.437500,1.785881
460,41.015625,41.015625,33.691406,-72.753906,58.105469,1.789787
461,-469.726562,35.644531,42.968750,-319.335938,-590.332031,1.793693
462,-322.753906,29.296875,29.296875,-130.371094,-390.136719,1.797600
463,233.398438,27.343750,17.578125,223.144531,338.867188,1.801506
464,511.230469,37.109375,20.019531,296.875000,707.519531,1.805412
465,107.421875,50.781250,32.226562,-27.832031,194.335938,1.809318
466,-445.800781,38.574219,39.550781,-311.035156,-495.117188,1.813225
467,-370.117188,25.390625,30.273438,-155.273438,-442.871094,1.817131
468,153.808594,22.949219,13.671875,191.406250,239.746094,1.834134
469,514.160156,16.601562,5.859375,316.406250,723.144531,1.838040
470,177.246094,25.390625,19.042969,23.437500,295.410156,1.841946
471,-397.460938,32.714844,37.109375,-293.457031,-454.589844,1.845853
472,-405.273438,30.761719,35.156250,-193.847656,-506.347656,1.849759
473,90.820312,24.414062,23.437500,150.878906,133.300781,1.853665
474,516.113281,18.554688,18.554688,329.101562,663.085938,1.857571
475,246.582031,20.996094,23.437500,68.359375,344.726562,1.861478
476,-325.683594,15.625000,30.761719,-271.972656,-383.300781,1.865384
477,-434.082031,17.089844,31.250000,-231.933594,-550.292969,1.869290
478,29.296875,21.484375,21.972656,107.910156,74.218750,1.873196
479,522.460938,14.648438,16.113281,335.937500,696.289062,1.877103
480,319.335938,20.019531,29.785156,112.304688,449.218750,1.874152
481,-252.441406,31.250000,46.875000,-230.468750,-279.785156,1.878058
482,-453.613281,22.949219,39.062500,-258.300781,-601.562500,1.881964
483,-52.246094,5.371094,24.902344,55.664062,-86.914062,1.885871
484,474.121094,-6.835938,19.042969,324.707031,608.398438,1.889777
485,356.933594,-3.417969,26.367188,149.414062,485.351562,1.893683
486,-185.058594,11.230469,46.875000,-194.335938,-219.238281,1.897589
487,-472.167969,17.089844,54.687500,-275.390625,-622.558594,1.901496
488,-124.023438,6.347656,38.085938,14.160156,-144.531250,1.905402
489,433.593750,0.488281,25.390625,312.988281,555.664062,1.909308
490,395.507812,9.765625,30.273438,188.964844,529.785156,1.913214
491,-123.535156,19.042969,36.621094,-158.691406,-136.230469,1.917121
492,-484.863281,22.949219,42.968750,-295.410156,-666.503906,1.916149
493,-196.777344,16.113281,30.761719,-28.320312,-282.714844,1.920055
494,380.859375,0.488281,18.066406,293.457031,462.890625,1.923961
495,438.476562,2.441406,20.507812,220.703125,588.867188,1.927868
496,-45.410156,17.578125,32.226562,-119.140625,-28.808594,1.931774
497,-473.144531,29.296875,41.992188,-302.246094,-617.675781,1.935680
498,-255.859375,28.808594,28.320312,-68.847656,-312.011719,1.939586
499,324.218750,24.414062,17.089844,272.949219,418.945312,1.943493
500,497.558594,25.878906,22.949219,270.019531,631.347656,1.947399
501,37.109375,24.414062,31.738281,-70.312500,100.097656,1.951305
502,-451.171875,20.996094,37.109375,-307.128906,-548.339844,1.955211
503,-283.691406,26.367188,26.367188,-106.445312,-416.503906,1.959118
504,273.925781,31.738281,14.160156,238.281250,299.804688,1.975873
505,535.644531,28.808594,14.648438,296.386719,658.691406,1.979780
506,128.906250,32.226562,28.320312,-18.066406,140.136719,1.983686
507,-410.156250,32.226562,43.457031,-298.339844,-563.964844,1.987592
508,-327.148438,22.460938,38.574219,-149.902344,-495.605469,1.991498
509,202.148438,20.996094,26.855469,199.707031,236.328125,1.995405
510,547.851562,21.972656,24.902344,323.242188,669.433594,1.999311
511,197.753906,26.855469,37.597656,32.226562,231.933594,2.003217
512,-370.117188,34.179688,50.781250,-276.367188,-479.980469,2.007123
513,-375.488281,23.437500,43.457031,-173.339844,-532.714844,2.011030
514,115.722656,8.300781,26.855469,168.457031,150.878906,2.014936
515,536.621094,5.859375,23.437500,343.750000,703.613281,2.018842
516,254.394531,16.601562,38.574219,78.613281,341.308594,2.014876
517,-323.242188,18.066406,49.316406,-260.742188,-420.410156,2.018782
518,-416.503906,23.437500,45.410156,-216.308594,-605.468750,2.022689
519,46.875000,22.460938,33.203125,116.210938,-13.671875,2.026595
520,528.808594,10.253906,25.878906,344.238281,626.464844,2.030501
521,318.359375,15.625000,33.203125,119.140625,395.507812,2.034407
522,-263.183594,28.320312,48.828125,-231.445312,-392.578125,2.038314
523,-461.914062,25.390625,49.804688,-251.953125,-692.382812,2.042220
524,-37.109375,9.765625,31.250000,66.406250,-74.218750,2.046126
525,496.093750,12.695312,21.972656,333.007812,640.625000,2.050032
526,356.445312,23.437500,29.785156,143.066406,491.210938,2.053939
527,-195.800781,19.042969,43.945312,-209.472656,-218.750000,2.057845
528,-466.796875,24.414062,50.292969,-278.320312,-590.332031,2.054158
529,-103.027344,32.714844,33.203125,18.066406,-117.187500,2.058064
530,458.007812,20.996094,14.160156,306.640625,581.054688,2.061970
531,413.085938,15.136719,17.089844,173.828125,539.062500,2.065877
532,-111.816406,29.296875,33.691406,-169.921875,-159.179688,2.069783
533,-474.121094,41.992188,46.386719,-300.781250,-643.554688,2.073689
534,-175.292969,30.761719,31.738281,-34.179688,-237.792969,2.077595
535,411.621094,15.136719,16.601562,291.992188,504.394531,2.081502
536,458.007812,16.113281,26.855469,224.121094,609.375000,2.085408
537,-42.480469,29.785156,38.085938,-126.464844,-25.878906,2.089314
538,-472.656250,20.507812,36.132812,-317.871094,-605.468750,2.093220
539,-226.562500,20.507812,28.808594,-73.242188,-315.429688,2.097127
540,363.281250,33.691406,21.484375,277.343750,424.316406,2.114153
541,503.417969,27.343750,18.554688,262.695312,648.925781,2.118060
542,41.992188,30.273438,31.250000,-76.171875,51.757812,2.121966
543,-441.894531,40.039062,45.410156,-302.246094,-584.472656,2.125872
544,-273.437500,36.621094,37.109375,-103.515625,-394.042969,2.129778
545,283.203125,31.250000,23.925781,242.187500,282.714844,2.133685
546,530.273438,31.738281,19.531250,289.550781,630.859375,2.137591
547,118.652344,40.527344,32.714844,-34.667969,125.000000,2.141497
548,-421.386719,38.574219,46.386719,-297.851562,-555.664062,2.145403
549,-328.125000,29.785156,41.015625,-134.277344,-451.171875,2.149310
550,210.449219,20.996094,33.203125,216.796875,207.519531,2.153216
551,550.292969,20.507812,28.320312,329.101562,642.578125,2.157122
552,187.988281,40.527344,35.156250,22.460938,242.675781,2.154130
553,-380.371094,57.128906,48.828125,-285.644531,-475.585938,2.158036
554,-375.488281,55.175781,43.945312,-175.781250,-525.390625,2.161942
555,126.464844,34.667969,20.019531,158.691406,132.812500,2.165848
556,546.386719,23.925781,11.718750,330.566406,686.523438,2.169755
557,253.417969,28.320312,30.761719,66.406250,346.191406,2.173661
558,-327.148438,38.085938,44.921875,-266.113281,-376.953125,2.177567
559,-412.109375,35.644531,40.039062,-219.238281,-520.019531,2.181473
560,52.734375,20.996094,30.273438,111.328125,82.519531,2.185380
561,529.296875,15.625000,23.925781,329.589844,663.085938,2.189286
562,301.757812,20.507812,31.738281,94.238281,371.582031,2.193192
563,-272.949219,28.320312,41.503906,-244.140625,-375.488281,2.197098
564,-447.753906,35.156250,36.621094,-250.488281,-637.695312,2.195989
565,-34.667969,26.367188,24.414062,66.406250,-69.335938,2.199895
566,481.933594,14.160156,14.648438,323.730469,569.335938,2.203802
567,337.402344,28.320312,25.390625,133.300781,432.617188,2.207708
568,-211.914062,49.804688,46.875000,-208.496094,-289.550781,2.211614
569,-471.191406,54.199219,48.828125,-275.390625,-711.425781,2.215520
570,-118.164062,45.898438,23.437500,13.671875,-185.058594,2.219427
571,437.988281,26.855469,5.859375,302.246094,554.687500,2.223333
572,406.738281,38.574219,22.460938,166.992188,518.066406,2.227239
573,-125.488281,53.710938,38.085938,-175.781250,-169.921875,2.231145
574,-474.121094,45.898438,43.945312,-289.550781,-631.835938,2.235052
575,-161.621094,37.597656,36.621094,-10.742188,-241.699219,2.238958
576,415.039062,38.574219,23.437500,316.894531,495.605469,2.254087
577,447.265625,43.945312,23.925781,232.910156,573.242188,2.257993
578,-54.199219,45.898438,36.621094,-117.675781,-85.449219,2.261900
579,-467.285156,45.410156,49.316406,-292.968750,-619.628906,2.265806
580,-221.191406,45.898438,41.503906,-45.410156,-303.710938,2.269712
581,356.445312,39.550781,27.343750,292.480469,437.988281,2.273618
582,480.957031,36.621094,32.714844,263.183594,621.093750,2.277525
583,14.160156,45.410156,43.457031,-77.148438,31.250000,2.281431
584,-455.078125,42.968750,42.968750,-306.152344,-564.453125,2.285337
585,-282.226562,32.226562,35.156250,-100.097656,-372.558594,2.289243
586,276.367188,31.250000,25.390625,253.417969,316.406250,2.293150
587,510.253906,33.203125,22.949219,292.480469,632.324219,2.297056
588,93.261719,40.527344,39.062500,-29.296875,124.511719,2.294260
589,-427.246094,49.316406,52.734375,-283.203125,-518.554688,2.298166
590,-315.917969,55.664062,46.386719,-111.816406,-394.531250,2.302073
591,216.308594,46.386719,27.832031,226.562500,254.394531,2.305979
592,528.320312,33.203125,19.042969,320.800781,667.480469,2.309885
593,170.898438,40.039062,37.597656,21.972656,219.726562,2.313791
594,-380.859375,47.851562,51.269531,-278.808594,-545.410156,2.317698
595,-360.839844,44.433594,42.480469,-166.992188,-555.175781,2.321604
596,139.648438,47.363281,30.273438,178.222656,125.976562,2.325510
597,538.085938,47.851562,25.878906,335.449219,617.187500,2.329416
598,236.816406,41.503906,35.156250,55.175781,248.535156,2.333323
599,-339.843750,46.875000,43.945312,-270.019531,-433.593750,2.337229
600,-402.832031,38.085938,42.480469,-205.566406,-564.453125,2.334072
601,63.964844,26.367188,28.808594,125.488281,1.953125,2.337978
602,516.113281,24.414062,17.089844,328.613281,594.726562,2.341884
603,292.968750,32.226562,27.832031,94.238281,342.285156,2.345791
604,-267.578125,45.410156,41.503906,-242.187500,-359.863281,2.349697
605,-437.500000,44.433594,44.433594,-239.746094,-609.863281,2.353603
606,-16.601562,36.621094,38.085938,81.054688,-86.425781,2.357509
607,496.093750,30.273438,29.296875,330.078125,543.945312,2.361416
608,345.214844,37.597656,38.574219,132.324219,360.839844,2.365322
609,-207.519531,48.828125,48.339844,-210.937500,-341.308594,2.369228
610,-461.425781,43.945312,48.828125,-267.578125,-686.035156,2.373134
611,-101.074219,40.527344,40.039062,30.761719,-170.898438,2.377041
612,442.871094,31.250000,21.484375,309.082031,564.453125,2.394079
613,390.625000,27.343750,27.343750,165.039062,522.949219,2.397985
614,-130.371094,31.250000,42.968750,-173.828125,-152.832031,2.401891
615,-480.468750,23.925781,42.968750,-298.339844,-604.492188,2.405797
616,-181.640625,15.136719,31.250000,-31.250000,-215.332031,2.409704
617,399.414062,22.460938,21.484375,293.945312,449.707031,2.413610
618,448.730469,28.808594,21.484375,211.914062,509.277344,2.417516
619,-50.292969,26.367188,28.808594,-134.765625,-72.265625,2.421422
620,-453.125000,41.015625,39.550781,-305.175781,-613.769531,2.425329
621,-217.285156,38.574219,32.714844,-72.265625,-320.800781,2.429235
622,346.679688,30.761719,19.531250,257.812500,411.621094,2.433141
623,502.441406,26.855469,22.949219,251.953125,640.625000,2.437047
624,73.730469,28.808594,38.574219,-55.175781,33.691406,2.436935
625,-402.832031,46.875000,50.292969,-284.667969,-615.722656,2.440842
626,-277.832031,50.292969,29.785156,-119.140625,-408.691406,2.444748
627,260.253906,39.550781,10.253906,209.960938,270.996094,2.448654
628,518.554688,42.968750,17.089844,266.113281,601.562500,2.452560
629,137.695312,54.687500,28.320312,-29.296875,117.675781,2.456467
630,-377.929688,46.386719,41.015625,-284.179688,-526.855469,2.460373
631,-326.660156,26.855469,30.761719,-153.808594,-434.570312,2.464279
632,154.296875,20.507812,14.648438,162.109375,202.148438,2.468185
633,505.371094,23.925781,19.042969,283.691406,608.886719,2.472092
634,223.144531,38.085938,31.738281,40.039062,206.542969,2.475998
635,-306.640625,48.339844,44.433594,-230.468750,-485.351562,2.479904
636,-340.332031,41.015625,38.574219,-153.808594,-531.250000,2.474305
637,95.214844,41.015625,26.367188,139.160156,50.781250,2.478212
638,479.980469,35.644531,19.531250,291.015625,560.546875,2.482118
639,263.671875,30.273438,24.414062,73.730469,287.109375,2.486024
640,-245.605469,44.433594,44.921875,-203.613281,-370.117188,2.489930
641,-360.351562,47.363281,51.757812,-169.433594,-479.003906,2.493837
642,9.765625,46.875000,37.597656,98.144531,62.011719,2.497743
643,442.382812,45.410156,24.902344,285.644531,562.011719,2.501649
644,308.105469,40.039062,28.320312,104.980469,301.757812,2.505555
645,-181.640625,43.457031,40.039062,-185.058594,-313.476562,2.509462
646,-380.371094,29.296875,43.945312,-204.589844,-488.769531,2.513368
647,-57.617188,23.437500,35.156250,55.664062,-34.667969,2.517274
648,408.691406,29.296875,26.367188,277.343750,513.183594,2.534142
649,333.984375,30.761719,28.320312,133.789062,379.882812,2.538048
650,-121.582031,46.875000,38.085938,-150.878906,-231.445312,2.541955
651,-386.230469,36.132812,43.457031,-219.726562,-531.250000,2.545861
652,-124.511719,22.460938,30.761719,12.695312,-117.675781,2.549767
653,365.234375,40.039062,22.460938,254.882812,501.953125,2.553673
654,373.046875,49.316406,28.808594,159.667969,461.914062,2.557580
655,-65.917969,34.667969,38.574219,-117.675781,-125.000000,2.561486
656,-385.742188,35.156250,53.710938,-222.656250,-538.574219,2.565392
657,-165.039062,47.363281,47.363281,-9.765625,-202.148438,2.569298
658,315.429688,38.085938,29.296875,248.535156,447.753906,2.573205
659,387.207031,29.785156,28.320312,181.640625,486.816406,2.577111
660,0.000000,33.691406,39.062500,-95.703125,-72.265625,2.574221
661,-364.746094,39.550781,51.757812,-229.003906,-528.320312,2.578127
662,-211.425781,39.062500,45.410156,-41.015625,-233.886719,2.582033
663,273.925781,42.480469,37.597656,231.445312,420.410156,2.585940
664,422.851562,40.527344,35.156250,217.285156,583.984375,2.589846
665,61.523438,36.621094,40.527344,-49.804688,40.039062,2.593752
666,-343.261719,38.574219,45.898438,-232.421875,-493.652344,2.597658
667,-244.628906,28.808594,40.039062,-78.125000,-285.156250,2.601565
668,216.308594,15.625000,35.156250,199.707031,336.914062,2.605471
669,445.312500,16.113281,31.738281,228.515625,576.171875,2.609377
670,124.023438,27.832031,41.015625,-21.972656,121.093750,2.613283
671,-318.847656,33.691406,55.664062,-224.609375,-460.937500,2.617190
672,-276.855469,29.785156,47.363281,-97.167969,-360.839844,2.616092
673,155.273438,20.996094,29.785156,174.804688,226.562500,2.619999
674,466.308594,10.253906,25.878906,261.230469,574.707031,2.623905
675,200.195312,12.695312,34.179688,22.460938,171.386719,2.627811
676,-283.691406,21.972656,47.851562,-227.539062,-480.468750,2.631717
677,-316.894531,23.925781,49.804688,-140.625000,-456.542969,2.635624
678,89.843750,21.972656,40.527344,139.648438,121.093750,2.639530
679,458.984375,21.484375,36.621094,277.343750,541.503906,2.643436
680,249.023438,27.832031,38.085938,57.128906,254.394531,2.647342
681,-252.929688,31.250000,41.992188,-211.425781,-389.648438,2.651249
682,-353.515625,26.855469,41.015625,-171.875000,-489.746094,2.655155
683,29.785156,21.484375,34.179688,96.679688,58.105469,2.659061
684,437.988281,16.113281,24.902344,278.320312,585.937500,2.676038
685,287.597656,15.136719,25.878906,91.796875,338.867188,2.679944
686,-187.011719,25.390625,43.945312,-182.617188,-321.777344,2.683851
687,-365.234375,21.972656,41.992188,-194.335938,-510.253906,2.687757
688,-43.457031,12.207031,27.343750,56.152344,6.347656,2.691663
689,414.550781,14.160156,24.414062,269.531250,607.421875,2.695569
690,330.078125,16.601562,24.414062,107.421875,447.753906,2.699476
691,-142.089844,20.019531,28.808594,-173.339844,-186.035156,2.703382
692,-384.765625,33.203125,35.644531,-218.261719,-487.792969,2.707288
693,-102.050781,30.761719,31.250000,20.019531,-93.750000,2.711194
694,373.535156,17.578125,20.019531,260.253906,499.023438,2.715101
695,359.375000,17.578125,16.113281,144.042969,472.656250,2.719007
696,-71.289062,30.273438,31.738281,-130.859375,-94.726562,2.715873
697,-388.671875,39.062500,45.410156,-228.515625,-510.253906,2.719779
698,-170.898438,22.460938,34.179688,-20.507812,-184.570312,2.723686
699,322.753906,10.253906,20.507812,237.304688,438.476562,2.727592
700,387.207031,15.625000,17.089844,165.527344,477.539062,2.731498
701,-20.507812,20.507812,29.785156,-101.562500,-39.062500,2.735404
702,-387.207031,25.390625,42.968750,-233.886719,-529.785156,2.739311
703,-215.332031,22.949219,33.691406,-51.757812,-286.621094,2.743217
704,277.832031,18.554688,26.855469,229.003906,398.437500,2.747123
705,425.292969,17.578125,33.691406,217.773438,512.695312,2.751029
706,54.199219,31.250000,41.992188,-60.058594,-41.503906,2.754936
707,-369.628906,32.714844,43.457031,-235.351562,-538.085938,2.758842
708,-259.765625,15.625000,32.714844,-74.218750,-346.679688,2.774152
709,223.144531,18.554688,24.902344,203.125000,299.316406,2.778058
710,446.289062,20.996094,25.390625,242.187500,560.058594,2.781964
711,120.605469,27.832031,36.132812,-16.113281,105.468750,2.785871
712,-333.496094,31.250000,45.410156,-239.257812,-460.937500,2.789777
713,-291.503906,26.367188,39.550781,-111.328125,-363.281250,2.793683
714,155.761719,30.273438,28.320312,172.851562,231.445312,2.797589
715,455.566406,18.554688,19.531250,247.070312,577.148438,2.801496
716,178.222656,21.972656,26.855469,8.789062,175.781250,2.805402
717,-311.035156,44.433594,43.945312,-227.050781,-471.679688,2.809308
718,-319.335938,47.851562,46.875000,-132.812500,-466.796875,2.813214
719,102.050781,37.109375,38.574219,148.925781,136.718750,2.817121
720,455.566406,29.296875,33.691406,279.296875,571.777344,2.814526
721,233.886719,26.855469,37.109375,57.128906,232.421875,2.818433
722,-256.835938,34.667969,45.898438,-205.078125,-381.835938,2.822339
723,-341.796875,41.992188,44.921875,-157.226562,-416.992188,2.826245
724,36.621094,33.691406,32.714844,110.351562,147.949219,2.830151
725,451.171875,32.226562,27.343750,285.644531,643.066406,2.834058
726,297.851562,45.898438,38.574219,97.167969,362.792969,2.837964
727,-194.824219,61.035156,52.246094,-179.687500,-318.359375,2.841870
728,-361.816406,54.199219,51.757812,-181.152344,-514.160156,2.845776
729,-25.878906,32.226562,39.062500,75.195312,1.953125,2.849683
730,428.222656,28.808594,30.273438,283.203125,552.246094,2.853589
731,337.402344,36.621094,32.226562,122.070312,368.164062,2.857495
732,-146.972656,38.085938,40.039062,-161.621094,-253.906250,2.857182
733,-386.230469,46.386719,53.222656,-199.707031,-561.035156,2.861088
734,-87.890625,49.316406,47.851562,46.386719,-127.441406,2.864994
735,385.253906,27.343750,31.250000,269.531250,505.859375,2.868901
736,361.328125,27.832031,30.273438,144.531250,404.785156,2.872807
737,-82.519531,48.339844,45.898438,-129.394531,-190.917969,2.876713
738,-392.578125,52.734375,51.269531,-227.539062,-544.433594,2.880619
739,-150.878906,52.246094,38.574219,-3.417969,-208.007812,2.884526
740,346.679688,49.316406,29.296875,261.230469,414.062500,2.888432
741,387.207031,45.410156,27.832031,169.433594,453.125000,2.892338
742,-32.226562,52.734375,39.062500,-106.933594,-113.769531,2.896244
743,-391.113281,53.710938,49.804688,-234.375000,-549.316406,2.900151
744,-208.496094,41.992188,37.109375,-41.015625,-240.234375,2.914283
745,295.410156,33.203125,23.437500,239.257812,435.546875,2.918189
746,422.363281,22.949219,25.878906,213.867188,524.902344,2.922096
747,37.597656,27.832031,38.085938,-67.382812,-40.039062,2.926002
748,-372.070312,37.109375,46.386719,-244.628906,-529.785156,2.929908
749,-248.046875,32.226562,40.039062,-67.382812,-318.359375,2.933814
750,232.421875,19.531250,28.320312,210.937500,316.406250,2.937721
751,440.429688,8.789062,25.878906,224.609375,554.199219,2.941627
752,107.421875,15.136719,30.761719,-34.667969,75.683594,2.945533
753,-341.308594,32.226562,44.921875,-238.769531,-502.441406,2.949439
754,-279.785156,21.972656,39.062500,-104.003906,-394.531250,2.953346
755,174.316406,2.441406,26.367188,180.664062,270.507812,2.957252
756,452.636719,-4.394531,23.925781,255.859375,627.441406,2.954188
757,160.156250,-2.929688,33.691406,10.742188,146.484375,2.958094
758,-316.894531,11.718750,55.664062,-223.632812,-463.378906,2.962001
759,-316.894531,16.113281,51.757812,-115.234375,-399.414062,2.965907
760,108.398438,8.300781,35.156250,165.039062,182.128906,2.969813
761,454.589844,1.464844,26.855469,277.832031,585.449219,2.973719
762,219.238281,15.136719,34.667969,55.664062,262.695312,2.977626
763,-270.507812,25.390625,45.410156,-207.031250,-368.652344,2.981532
764,-339.355469,16.113281,44.433594,-151.855469,-443.359375,2.985438
765,57.128906,15.625000,30.761719,116.210938,96.679688,2.989344
766,461.914062,16.113281,20.507812,272.949219,566.894531,2.993251
767,277.343750,18.066406,28.320312,73.242188,283.203125,2.997157
768,-218.750000,30.273438,41.992188,-203.125000,-364.746094,2.994013
769,-359.863281,26.855469,41.992188,-190.917969,-564.941406,2.997919
770,-0.488281,22.460938,32.226562,71.289062,-81.054688,3.001826
771,453.613281,24.902344,23.925781,271.972656,523.437500,3.005732
772,340.820312,19.042969,20.019531,102.050781,359.375000,3.009638
773,-145.507812,21.484375,31.738281,-181.640625,-288.085938,3.013544
774,-377.441406,27.832031,43.457031,-208.496094,-569.335938,3.017451
775,-77.148438,34.667969,40.039062,47.851562,-109.375000,3.021357
776,397.460938,31.250000,26.367188,277.832031,502.441406,3.025263
777,339.355469,27.343750,20.507812,138.671875,389.160156,3.029169
778,-118.164062,41.503906,31.738281,-146.972656,-193.359375,3.033076
779,-406.250000,43.457031,38.574219,-224.121094,-533.203125,3.036982
780,-151.367188,31.738281,27.343750,1.953125,-168.457031,3.054151
781,350.097656,25.878906,19.531250,256.835938,478.027344,3.058057
782,368.652344,25.878906,27.832031,172.851562,484.863281,3.061964
783,-62.011719,37.597656,36.621094,-113.769531,-117.187500,3.065870
784,-404.785156,48.339844,41.992188,-240.722656,-552.246094,3.069776
785,-214.843750,31.738281,37.109375,-34.667969,-215.332031,3.073682
786,286.132812,12.695312,23.925781,238.281250,447.265625,3.077589
787,405.273438,21.484375,25.390625,202.148438,506.347656,3.081495
788,14.160156,34.179688,36.132812,-72.265625,-15.136719,3.085401
789,-390.136719,30.761719,41.503906,-238.769531,-480.468750,3.089307
790,-244.140625,21.972656,38.085938,-64.941406,-272.949219,3.093214
791,247.558594,16.113281,25.878906,211.425781,337.402344,3.097120
792,428.710938,8.300781,20.507812,219.238281,571.777344,3.108375
793,77.636719,15.136719,33.691406,-50.781250,93.261719,3.112282
794,-364.257812,30.273438,48.339844,-250.000000,-483.886719,3.116188
795,-284.667969,19.042969,43.457031,-103.027344,-338.867188,3.120094
796,182.128906,11.718750,29.785156,181.152344,301.757812,3.124000
797,453.613281,19.531250,24.902344,252.441406,613.769531,3.127907
798,169.433594,28.808594,32.714844,16.601562,125.000000,3.131813
799,-317.871094,31.738281,47.851562,-223.632812,-500.488281,3.135719
800,-328.613281,23.925781,49.316406,-138.183594,-416.992188,3.139625
801,115.234375,13.183594,36.132812,152.832031,195.800781,3.143532
802,465.332031,4.394531,31.738281,281.738281,579.101562,3.147438
803,203.613281,7.812500,37.597656,41.992188,190.429688,3.151344
804,-290.527344,14.160156,48.828125,-216.796875,-455.566406,3.151468
805,-342.285156,20.507812,44.433594,-153.808594,-489.746094,3.155374
806,50.292969,20.019531,29.296875,114.257812,78.613281,3.159281
807,447.753906,10.253906,25.390625,275.390625,535.644531,3.163187
808,254.882812,24.414062,33.691406,74.218750,246.093750,3.167093
809,-241.210938,36.132812,48.828125,-198.242188,-396.484375,3.170999
810,-365.234375,18.066406,42.968750,-182.617188,-549.804688,3.174906
811,-0.488281,14.648438,28.320312,86.425781,-12.695312,3.178812
812,443.359375,20.019531,19.531250,281.738281,558.105469,3.182718
813,310.546875,20.507812,22.460938,98.632812,355.468750,3.186624
814,-181.152344,33.691406,35.156250,-187.988281,-283.203125,3.190531
815,-377.929688,47.363281,41.015625,-206.542969,-510.742188,3.194437
816,-59.570312,30.273438,30.273438,44.921875,-35.156250,3.210028
817,405.273438,6.347656,20.996094,269.531250,552.246094,3.213934
818,339.843750,8.300781,25.878906,130.859375,421.875000,3.217841
819,-115.722656,31.738281,39.550781,-154.296875,-208.984375,3.221747
820,-387.207031,46.875000,47.851562,-224.121094,-551.269531,3.225653
821,-123.046875,43.945312,37.109375,2.929688,-163.574219,3.229559
822,373.046875,46.386719,23.925781,260.253906,476.562500,3.233466
823,381.835938,41.503906,25.878906,159.179688,439.941406,3.237372
824,-55.664062,33.691406,30.761719,-132.324219,-195.800781,3.241278
825,-390.625000,35.644531,36.621094,-243.652344,-617.675781,3.245184
826,-171.386719,33.203125,33.691406,-31.250000,-239.746094,3.249091
827,335.937500,28.320312,22.460938,247.558594,429.199219,3.252997
828,416.992188,25.390625,19.042969,196.289062,499.023438,3.248342
829,21.484375,35.156250,36.132812,-79.589844,-45.410156,3.252249
830,-371.582031,38.085938,47.363281,-235.351562,-516.601562,3.256155
831,-221.191406,29.785156,35.644531,-54.199219,-254.882812,3.260061
832,271.484375,20.507812,20.019531,224.121094,381.835938,3.263967
833,434.082031,23.437500,19.531250,219.238281,583.007812,3.267874
834,76.171875,42.480469,36.132812,-42.968750,68.847656,3.271780
835,-360.351562,42.968750,42.480469,-241.699219,-471.679688,3.275686
836,-262.207031,39.062500,41.992188,-93.261719,-295.410156,3.279592
837,220.703125,37.597656,38.574219,201.171875,278.808594,3.283499
838,466.796875,29.785156,33.691406,247.070312,535.156250,3.287405
839,132.812500,27.343750,34.179688,-21.972656,89.843750,3.291311
840,-333.984375,28.808594,40.039062,-246.582031,-506.835938,3.290413
841,-297.851562,24.414062,43.457031,-119.628906,-408.691406,3.294319
842,141.113281,24.902344,34.667969,166.503906,217.773438,3.298225
843,460.937500,26.855469,23.437500,265.136719,637.207031,3.302132
844,187.011719,26.367188,30.761719,19.042969,247.558594,3.306038
845,-304.687500,30.273438,42.480469,-235.351562,-444.824219,3.309944
846,-337.890625,32.714844,37.109375,-150.390625,-469.726562,3.313850
847,73.242188,26.367188,26.367188,131.347656,136.230469,3.317757
848,454.101562,13.671875,20.019531,279.296875,582.031250,3.321663
849,238.769531,15.625000,26.855469,62.011719,248.535156,3.325569
850,-254.882812,29.785156,41.503906,-208.984375,-386.230469,3.329475
851,-363.769531,21.972656,35.644531,-173.828125,-508.300781,3.333382
852,6.347656,12.207031,25.390625,99.609375,30.273438,3.346329
853,448.242188,14.648438,19.042969,288.574219,561.523438,3.350236
854,300.781250,17.578125,24.414062,101.074219,320.800781,3.354142
855,-196.777344,27.832031,36.621094,-186.035156,-321.289062,3.358048
856,-382.812500,31.738281,38.085938,-196.289062,-570.800781,3.361954
857,-54.687500,27.832031,28.320312,62.011719,-87.402344,3.365861
858,414.062500,30.761719,20.019531,276.855469,502.929688,3.369767
859,335.449219,37.597656,24.414062,122.070312,368.164062,3.373673
860,-139.648438,39.062500,33.691406,-168.457031,-249.511719,3.377579
861,-400.390625,40.039062,41.015625,-223.144531,-579.101562,3.381486
862,-122.070312,31.738281,31.738281,12.207031,-123.046875,3.385392
863,364.746094,18.554688,17.089844,255.371094,517.578125,3.389298
864,348.144531,17.578125,19.531250,145.996094,477.539062,3.386834
865,-86.425781,30.273438,34.667969,-133.300781,-116.210938,3.390740
866,-409.179688,39.062500,38.574219,-237.792969,-525.878906,3.394646
867,-183.593750,41.992188,26.367188,-25.390625,-137.207031,3.398553
868,328.613281,35.156250,15.625000,237.792969,522.949219,3.402459
869,385.742188,30.761719,20.019531,169.433594,532.714844,3.406365
870,-28.320312,33.203125,35.156250,-105.957031,-41.015625,3.410271
871,-396.972656,29.785156,40.527344,-256.835938,-523.437500,3.414178
872,-227.539062,26.367188,28.808594,-68.359375,-263.671875,3.418084
873,268.554688,20.996094,20.019531,217.773438,363.769531,3.421990
874,416.503906,23.925781,21.484375,204.101562,502.441406,3.425896
875,49.804688,45.898438,37.109375,-59.082031,-9.765625,3.429803
876,-363.769531,52.246094,48.828125,-239.257812,-543.457031,3.425452
877,-260.742188,31.738281,31.738281,-88.378906,-341.796875,3.429358
878,215.332031,28.808594,13.183594,195.312500,296.386719,3.433264
879,444.335938,30.761719,7.324219,237.792969,577.636719,3.437171
880,105.468750,32.226562,17.578125,-23.437500,108.398438,3.441077
881,-356.933594,34.667969,36.621094,-247.070312,-493.164062,3.444983
882,-303.222656,33.691406,38.574219,-118.652344,-413.574219,3.448889
883,151.367188,31.250000,23.437500,168.457031,210.937500,3.452796
884,447.753906,20.019531,19.042969,252.929688,567.871094,3.456702
885,165.039062,17.578125,22.949219,4.882812,165.527344,3.460608
886,-312.500000,25.390625,29.785156,-242.675781,-422.363281,3.464514
887,-324.707031,31.738281,29.296875,-145.507812,-429.687500,3.468421
888,95.703125,29.296875,19.531250,138.671875,139.648438,3.486188
889,458.496094,24.414062,13.671875,273.925781,597.167969,3.490095
890,231.933594,24.414062,18.554688,54.199219,229.492188,3.494001
891,-257.812500,32.714844,31.738281,-213.378906,-437.988281,3.497907
892,-343.750000,42.968750,37.109375,-159.667969,-516.113281,3.501813
893,27.343750,36.621094,27.343750,110.839844,69.824219,3.505720
894,429.199219,11.718750,13.183594,272.949219,601.562500,3.509626
895,268.554688,7.812500,17.578125,75.683594,328.613281,3.513532
896,-211.914062,24.902344,41.503906,-196.289062,-302.734375,3.517438
897,-374.023438,26.855469,43.945312,-192.382812,-502.929688,3.521345
898,-37.597656,20.996094,30.761719,63.476562,-45.898438,3.525251
899,415.039062,20.019531,25.390625,279.785156,506.347656,3.529157
900,315.917969,31.738281,27.343750,125.000000,376.464844,3.528975
901,-148.925781,37.109375,39.062500,-163.574219,-244.140625,3.532881
902,-380.371094,37.597656,50.292969,-202.148438,-557.128906,3.536787
903,-89.355469,31.250000,42.968750,44.433594,-141.601562,3.540694
904,390.136719,18.066406,25.390625,277.832031,491.699219,3.544600
905,360.351562,16.601562,28.320312,156.738281,433.593750,3.548506
906,-80.566406,28.808594,39.062500,-125.000000,-210.449219,3.552412
907,-380.371094,39.062500,41.503906,-218.261719,-575.195312,3.556319
908,-151.367188,33.203125,31.738281,-4.882812,-236.328125,3.560225
909,345.703125,18.066406,25.390625,253.417969,354.492188,3.564131
910,397.949219,13.671875,33.691406,180.175781,379.394531,3.568037
911,-17.089844,30.761719,38.085938,-99.121094,-165.527344,3.571944
912,-393.066406,43.457031,43.945312,-234.375000,-605.468750,3.582217
913,-210.937500,41.015625,38.574219,-42.968750,-324.707031,3.586123
914,293.945312,35.644531,21.484375,235.839844,341.796875,3.590029
915,413.574219,33.203125,15.625000,208.496094,505.859375,3.593935
916,37.597656,37.109375,32.226562,-62.500000,6.347656,3.597842
917,-369.628906,36.621094,48.828125,-225.097656,-500.000000,3.601748
918,-246.582031,31.250000,41.992188,-56.640625,-287.109375,3.605654
919,235.351562,32.714844,29.785156,220.214844,304.687500,3.609560
920,441.894531,37.597656,22.949219,234.863281,522.949219,3.613467
921,97.656250,30.273438,31.250000,-27.343750,69.824219,3.617373
922,-351.074219,26.367188,44.921875,-231.933594,-513.183594,3.621279
923,-285.644531,26.855469,40.039062,-94.238281,-385.742188,3.625185
924,168.945312,21.972656,29.785156,187.500000,256.835938,3.631010
925,448.242188,26.855469,18.554688,253.417969,611.816406,3.634916
926,157.226562,34.667969,23.925781,3.906250,143.554688,3.638823
927,-307.617188,41.992188,40.527344,-231.933594,-497.070312,3.642729
928,-311.523438,42.480469,36.132812,-130.371094,-443.847656,3.646635
929,99.121094,32.714844,20.996094,146.972656,147.460938,3.650541
930,457.031250,19.531250,20.996094,269.042969,575.683594,3.654448
931,233.398438,26.367188,33.203125,51.757812,211.914062,3.658354
932,-256.835938,41.015625,46.386719,-207.031250,-447.753906,3.662260
933,-337.890625,37.109375,44.921875,-153.320312,-512.695312,3.666166
934,41.992188,23.437500,32.226562,116.699219,74.218750,3.670073
935,442.382812,25.390625,21.972656,275.390625,579.101562,3.673979
936,270.996094,41.503906,29.296875,74.707031,324.218750,3.665344
937,-224.121094,33.691406,37.109375,-203.125000,-301.269531,3.669250
938,-367.187500,50.781250,37.109375,-187.011719,-461.914062,3.673156
939,-30.761719,60.546875,34.667969,64.941406,17.089844,3.677063
940,390.625000,26.367188,23.925781,248.046875,556.640625,3.680969
941,283.691406,37.109375,28.808594,83.984375,360.839844,3.684875
942,-180.664062,43.945312,36.621094,-189.941406,-299.804688,3.688781
943,-406.250000,37.109375,47.363281,-221.191406,-552.734375,3.692688
944,-119.140625,36.132812,51.757812,15.136719,-47.363281,3.696594
945,354.980469,21.484375,40.039062,230.957031,569.335938,3.700500
946,311.523438,28.808594,38.085938,98.144531,462.402344,3.704406
947,-150.878906,48.339844,52.734375,-184.082031,-133.789062,3.708313
948,-456.054688,51.757812,58.105469,-276.855469,-512.695312,3.707128
949,-207.519531,41.503906,49.804688,-60.058594,-141.113281,3.711034
950,283.691406,25.390625,40.039062,195.312500,508.300781,3.714940
951,300.781250,25.390625,44.921875,101.074219,530.761719,3.718847
952,-124.511719,33.203125,55.175781,-183.105469,-79.589844,3.722753
953,-482.910156,36.621094,58.593750,-314.453125,-535.156250,3.726659
954,-280.273438,35.644531,47.851562,-106.933594,-189.453125,3.730565
955,232.421875,38.085938,43.945312,178.710938,424.316406,3.734472
956,328.125000,41.015625,49.316406,129.882812,505.371094,3.738378
957,-79.101562,30.273438,43.945312,-158.203125,-13.671875,3.742284
958,-456.542969,23.925781,51.269531,-309.570312,-521.972656,3.746190
959,-303.710938,15.136719,49.804688,-120.117188,-279.785156,3.750097
960,180.175781,9.277344,39.550781,164.550781,383.300781,3.770644
961,364.257812,19.531250,34.667969,166.015625,604.980469,3.774550
962,16.601562,29.296875,41.015625,-95.214844,78.613281,3.778456
963,-412.597656,29.785156,53.222656,-278.808594,-495.117188,3.782363
964,-326.660156,30.761719,48.828125,-135.742188,-343.261719,3.786269
965,141.113281,23.925781,30.761719,140.625000,294.921875,3.790175
966,407.226562,6.347656,23.437500,203.613281,618.652344,3.794081
967,104.980469,10.253906,31.250000,-44.921875,130.859375,3.797988
968,-362.304688,21.484375,36.132812,-269.042969,-451.660156,3.801894
969,-343.261719,10.742188,36.132812,-153.808594,-380.371094,3.805800
970,91.796875,5.859375,27.343750,131.835938,200.195312,3.809706
971,421.386719,11.718750,21.972656,243.164062,601.562500,3.813613
972,189.941406,10.742188,31.250000,11.718750,224.121094,3.817132
973,-275.390625,14.160156,31.738281,-241.699219,-372.070312,3.821038
974,-322.265625,18.554688,25.878906,-169.921875,-382.324219,3.824944
975,65.917969,22.949219,16.601562,97.167969,136.230469,3.828851
976,441.894531,26.367188,8.300781,241.210938,574.707031,3.832757
977,254.394531,32.226562,17.578125,49.316406,277.832031,3.836663
978,-219.238281,37.109375,33.203125,-197.753906,-355.957031,3.840569
979,-348.632812,18.066406,23.925781,-169.921875,-459.472656,3.844476
980,-6.347656,7.812500,4.882812,80.566406,44.921875,3.848382
981,420.410156,11.718750,7.324219,261.718750,528.808594,3.852288
982,306.152344,25.390625,17.578125,101.562500,338.378906,3.856194
983,-152.832031,32.714844,23.437500,-155.273438,-244.628906,3.860101
984,-345.214844,27.832031,32.714844,-169.921875,-489.257812,3.863271
985,-49.804688,16.113281,26.367188,66.894531,-81.054688,3.867177
986,391.601562,-3.417969,8.789062,276.367188,509.277344,3.871083
987,332.519531,-1.464844,13.183594,146.484375,391.113281,3.874990
988,-95.214844,14.160156,28.320312,-123.046875,-202.148438,3.878896
989,-338.867188,20.507812,36.621094,-181.152344,-523.437500,3.882802
990,-98.632812,11.718750,22.460938,37.109375,-143.554688,3.886708
991,367.187500,10.253906,11.718750,265.625000,466.796875,3.890615
992,379.394531,26.367188,18.066406,168.945312,405.761719,3.894521
993,-25.390625,30.761719,28.808594,-92.285156,-149.902344,3.898427
994,-341.308594,35.156250,36.132812,-194.824219,-500.000000,3.902333
995,-158.691406,38.574219,24.902344,-1.464844,-152.832031,3.906240
996,305.175781,34.667969,11.230469,247.070312,471.679688,3.907228
997,394.042969,28.320312,15.625000,195.312500,531.738281,3.911134
998,32.226562,37.109375,28.808594,-51.757812,-33.691406,3.915040
999,-335.937500,47.363281,38.085938,-192.382812,-507.812500,3.918947
1000,-205.566406,40.527344,30.273438,-28.808594,-247.558594,3.922853
1001,255.859375,34.179688,19.531250,234.863281,363.769531,3.926759
1002,428.222656,31.738281,20.996094,228.027344,546.386719,3.930665
1003,95.703125,29.785156,25.390625,-27.343750,44.921875,3.934572
1004,-311.523438,39.062500,30.761719,-208.984375,-484.375000,3.938478
1005,-224.121094,44.921875,28.808594,-64.453125,-309.082031,3.942384
1006,209.472656,32.226562,15.625000,193.847656,251.464844,3.946290
1007,440.429688,25.390625,7.324219,228.515625,526.367188,3.950197
1008,157.226562,36.621094,18.066406,-2.929688,100.097656,3.940627
1009,-277.832031,40.039062,31.250000,-207.031250,-454.589844,3.944533
1010,-266.113281,29.785156,27.343750,-99.609375,-348.144531,3.948439
1011,140.625000,25.878906,20.019531,161.621094,187.500000,3.952345
1012,449.218750,31.738281,19.531250,253.906250,551.757812,3.956252
1013,211.425781,32.714844,28.320312,42.480469,208.007812,3.960158
1014,-250.976562,34.179688,35.156250,-187.500000,-399.902344,3.964064
1015,-301.269531,34.179688,30.273438,-118.164062,-416.503906,3.967970
1016,74.707031,25.390625,20.996094,136.718750,112.792969,3.971877
1017,427.734375,18.554688,16.601562,266.601562,562.988281,3.975783
1018,241.210938,22.460938,21.484375,60.546875,298.339844,3.979689
1019,-202.148438,35.156250,39.550781,-178.710938,-350.585938,3.983595
1020,-312.500000,36.132812,41.992188,-140.136719,-499.023438,3.991985
1021,18.066406,31.738281,32.714844,97.656250,16.113281,3.995891
1022,422.851562,35.156250,24.414062,270.507812,528.320312,3.999798
1023,292.480469,22.949219,20.996094,97.167969,323.242188,4.003704
1024,-161.621094,20.996094,35.156250,-168.945312,-283.203125,4.007610
1025,-341.796875,27.832031,35.644531,-177.246094,-522.460938,4.011516
1026,-45.410156,31.250000,28.320312,60.058594,-59.082031,4.015423
1027,398.437500,32.226562,24.414062,259.765625,483.886719,4.019329
1028,331.054688,32.226562,29.296875,119.628906,294.433594,4.023235
1029,-101.562500,32.226562,41.015625,-145.507812,-306.640625,4.027141
1030,-347.167969,29.296875,41.015625,-199.218750,-578.125000,4.031048
1031,-97.656250,26.855469,28.808594,25.390625,-173.339844,4.034954
1032,359.375000,13.671875,17.089844,250.000000,427.734375,4.084459
1033,348.632812,15.136719,23.437500,143.066406,411.621094,4.088365
1034,-59.082031,32.714844,38.574219,-125.000000,-159.667969,4.092272
1035,-359.863281,40.039062,43.945312,-220.703125,-532.714844,4.096178
1036,-161.621094,31.250000,30.273438,-14.160156,-182.617188,4.100084
1037,304.199219,16.113281,16.113281,231.933594,427.734375,4.103990
1038,362.792969,15.625000,13.183594,162.597656,440.429688,4.107897
1039,-18.554688,30.761719,24.414062,-98.144531,-116.699219,4.111803
1040,-385.253906,34.667969,39.550781,-242.187500,-534.667969,4.115709
1041,-225.585938,32.226562,31.250000,-58.105469,-243.652344,4.119615
1042,270.019531,30.761719,19.042969,226.562500,350.097656,4.123522
1043,410.156250,30.273438,17.578125,206.542969,456.054688,4.127428
1044,41.503906,37.109375,27.832031,-64.453125,-43.945312,4.104541
1045,-369.628906,41.503906,36.132812,-244.140625,-581.054688,4.108447
1046,-255.859375,34.667969,33.203125,-80.566406,-404.785156,4.112353
1047,222.656250,20.019531,22.460938,206.542969,255.371094,4.116259
1048,446.777344,20.019531,13.671875,244.140625,535.156250,4.120166
1049,112.792969,39.062500,31.738281,-14.648438,68.847656,4.124072
1050,-347.167969,46.386719,47.363281,-230.957031,-535.644531,4.127978
1051,-293.457031,32.714844,30.761719,-105.468750,-394.042969,4.131884
1052,168.457031,29.296875,20.996094,180.664062,228.027344,4.135791
1053,469.238281,40.527344,23.925781,268.066406,526.855469,4.139697
1054,166.503906,38.574219,25.878906,10.253906,131.347656,4.143603
1055,-324.707031,35.644531,33.203125,-243.164062,-488.769531,4.147509
1056,-321.777344,39.062500,30.273438,-138.671875,-479.003906,4.162916
1057,114.257812,33.203125,18.554688,155.273438,89.843750,4.166823
1058,472.656250,23.437500,9.277344,284.179688,545.410156,4.170729
1059,225.585938,37.597656,26.367188,52.246094,222.656250,4.174635
1060,-283.691406,57.617188,46.386719,-214.843750,-425.292969,4.178541
1061,-358.886719,53.710938,40.527344,-150.390625,-492.675781,4.182448
1062,41.015625,41.992188,26.855469,124.511719,57.617188,4.186354
1063,459.472656,38.574219,15.625000,301.269531,549.804688,4.190260
1064,259.277344,36.132812,21.972656,98.144531,306.640625,4.194166
1065,-254.882812,39.062500,40.039062,-200.683594,-319.824219,4.198073
1066,-376.464844,39.062500,46.386719,-182.617188,-525.390625,4.201979
1067,-4.882812,39.550781,40.527344,102.539062,-23.925781,4.205885
1068,450.195312,39.062500,29.785156,309.082031,577.148438,4.185061
1069,312.011719,29.296875,28.320312,122.558594,413.085938,4.188967
1070,-189.941406,36.132812,40.527344,-180.175781,-262.207031,4.192873
1071,-400.878906,38.574219,41.015625,-219.726562,-577.148438,4.196780
1072,-64.941406,31.250000,29.296875,46.875000,-101.074219,4.200686
1073,434.082031,29.296875,24.414062,296.386719,563.964844,4.204592
1074,360.351562,35.156250,32.714844,152.832031,477.050781,4.208498
1075,-127.441406,47.363281,44.433594,-157.714844,-199.707031,4.212405
1076,-414.062500,53.710938,46.875000,-249.511719,-609.375000,4.216311
1077,-134.277344,35.644531,26.367188,-7.324219,-211.425781,4.220217
1078,390.136719,19.531250,14.648438,271.972656,460.449219,4.224123
1079,392.578125,32.226562,24.414062,169.433594,445.800781,4.228030
1080,-82.031250,49.316406,33.203125,-144.042969,-144.531250,4.238041
1081,-436.035156,49.804688,38.574219,-271.972656,-570.312500,4.241947
1082,-195.312500,45.410156,27.343750,-39.062500,-233.886719,4.245854
1083,343.750000,35.644531,10.253906,266.601562,470.214844,4.249760
1084,419.433594,22.949219,10.253906,213.867188,578.613281,4.253666
1085,-27.343750,28.808594,25.878906,-98.632812,-58.593750,4.257572
1086,-441.406250,41.503906,39.062500,-270.996094,-616.699219,4.261479
1087,-243.164062,43.457031,31.250000,-64.453125,-302.246094,4.265385
1088,306.640625,37.597656,21.484375,253.906250,406.738281,4.269291
1089,480.468750,40.039062,23.925781,252.929688,629.394531,4.273197
1090,59.082031,51.269531,29.785156,-65.429688,92.773438,4.277104
1091,-404.785156,53.222656,44.921875,-287.109375,-517.578125,4.281010
1092,-268.066406,49.316406,41.992188,-112.304688,-363.769531,4.268508
1093,256.347656,44.433594,22.460938,210.449219,318.847656,4.272414
1094,514.648438,39.550781,19.531250,270.996094,699.218750,4.276320
1095,130.859375,34.667969,33.203125,-31.738281,219.726562,4.280227
1096,-375.976562,37.109375,43.457031,-286.621094,-503.417969,4.284133
1097,-302.246094,36.621094,37.109375,-136.718750,-468.750000,4.288039
1098,193.847656,26.855469,22.460938,193.359375,166.503906,4.291945
1099,525.878906,28.320312,15.136719,308.105469,618.164062,4.295852
1100,182.128906,38.574219,22.949219,22.949219,254.394531,4.299758
1101,-364.746094,44.433594,33.203125,-263.671875,-434.570312,4.303664
1102,-365.234375,40.527344,31.738281,-158.691406,-490.234375,4.307570
1103,107.421875,31.250000,18.066406,163.574219,90.332031,4.311477
1104,516.113281,27.832031,10.742188,330.566406,634.277344,4.327908
1105,236.816406,23.437500,23.437500,71.777344,323.730469,4.331814
1106,-322.265625,27.832031,44.921875,-243.164062,-392.578125,4.335721
1107,-395.996094,35.644531,46.875000,-190.429688,-532.226562,4.339627
1108,54.687500,23.925781,30.761719,123.535156,54.687500,4.343533
1109,523.925781,19.042969,25.878906,330.078125,625.488281,4.347439
1110,306.640625,35.156250,33.691406,97.656250,360.839844,4.351346
1111,-260.742188,44.921875,41.015625,-241.210938,-387.695312,4.355252
1112,-434.082031,26.367188,34.667969,-262.207031,-650.390625,4.359158
1113,-16.113281,16.601562,24.902344,50.781250,-78.125000,4.363064
1114,510.742188,21.972656,16.601562,312.500000,603.515625,4.366971
1115,362.304688,31.738281,25.878906,119.628906,468.261719,4.370877
1116,-199.218750,39.062500,49.804688,-218.261719,-250.488281,4.378606
1117,-457.031250,48.828125,52.734375,-277.343750,-614.257812,4.382512
1118,-79.101562,51.757812,39.062500,27.832031,-169.433594,4.386419
1119,475.585938,30.273438,23.437500,327.148438,580.566406,4.390325
1120,393.554688,21.972656,28.320312,184.082031,579.101562,4.394231
1121,-142.089844,32.226562,48.828125,-154.785156,-151.367188,4.398137
1122,-475.097656,34.667969,51.757812,-271.484375,-631.835938,4.402044
1123,-167.968750,30.761719,34.179688,-1.953125,-233.398438,4.405950
1124,426.757812,36.621094,22.460938,323.730469,481.933594,4.409856
1125,441.406250,43.457031,21.484375,227.539062,519.042969,4.413762
1126,-93.750000,40.527344,30.761719,-123.535156,-115.234375,4.417669
1127,-499.023438,35.644531,41.992188,-297.363281,-630.371094,4.421575
1128,-242.675781,29.785156,32.714844,-59.082031,-315.917969,4.432064
1129,343.750000,24.414062,19.042969,283.203125,431.152344,4.435971
1130,462.402344,25.390625,15.136719,250.488281,660.156250,4.439877
1131,-15.136719,35.644531,26.367188,-96.679688,35.156250,4.443783
1132,-469.726562,49.804688,41.992188,-318.359375,-605.957031,4.447689
1133,-259.277344,52.734375,36.621094,-100.097656,-383.789062,4.451596
1134,321.777344,33.203125,21.484375,256.347656,318.847656,4.455502
1135,537.597656,16.113281,18.554688,285.644531,649.414062,4.459408
1136,96.679688,24.414062,22.949219,-49.316406,127.441406,4.463314
1137,-422.363281,39.550781,32.714844,-309.570312,-556.640625,4.467221
1138,-298.339844,36.621094,22.460938,-132.812500,-444.335938,4.471127
1139,256.347656,28.808594,9.277344,224.121094,259.765625,4.475033
1140,563.476562,26.855469,10.253906,324.218750,668.945312,4.465406
1141,168.457031,42.968750,23.437500,18.066406,207.519531,4.469312
1142,-390.136719,56.640625,38.574219,-283.691406,-526.367188,4.473218
1143,-359.375000,38.574219,30.273438,-166.015625,-533.691406,4.477125
1144,160.644531,23.925781,19.531250,184.570312,142.578125,4.481031
1145,560.058594,24.414062,12.695312,339.843750,658.203125,4.484937
1146,226.074219,31.250000,20.019531,55.175781,295.898438,4.488843
1147,-367.187500,40.527344,40.527344,-275.878906,-481.445312,4.492750
1148,-416.015625,38.085938,39.550781,-208.984375,-630.371094,4.496656
1149,71.777344,24.414062,21.484375,131.835938,38.574219,4.500562
1150,531.250000,7.812500,11.718750,328.125000,620.605469,4.504468
1151,262.207031,18.554688,20.019531,72.753906,320.800781,4.508375
1152,-335.937500,22.949219,31.250000,-272.460938,-388.183594,4.519270
1153,-473.632812,10.742188,33.203125,-258.789062,-628.906250,4.523176
1154,-19.531250,15.625000,23.925781,80.078125,-57.617188,4.527083
1155,501.953125,15.136719,19.042969,337.402344,651.367188,4.530989
1156,324.218750,6.835938,42.480469,145.019531,457.519531,4.534895
1157,-226.562500,29.785156,64.453125,-181.152344,-332.519531,4.538801
1158,-468.750000,47.851562,47.851562,-251.464844,-691.894531,4.542708
1159,-79.101562,32.226562,23.925781,34.179688,-164.062500,4.546614
1160,500.976562,26.367188,12.695312,328.613281,550.781250,4.550520
1161,393.554688,29.785156,16.113281,164.062500,507.324219,4.554426
1162,-153.320312,44.921875,32.714844,-185.058594,-151.367188,4.558333
1163,-458.007812,62.988281,45.898438,-285.156250,-655.761719,4.562239
1164,-106.933594,53.710938,31.250000,5.371094,-248.046875,4.566715
1165,482.910156,58.593750,15.136719,320.312500,536.621094,4.570621
1166,472.167969,68.847656,21.972656,207.519531,567.382812,4.574527
1167,-60.546875,67.382812,31.250000,-152.343750,-96.191406,4.578434
1168,-451.660156,66.894531,36.621094,-317.871094,-623.046875,4.582340
1169,-166.015625,51.269531,25.878906,-55.664062,-266.113281,4.586246
1170,417.480469,43.945312,9.277344,274.902344,477.050781,4.590152
1171,490.722656,47.851562,10.742188,218.261719,608.398438,4.594059
1172,-22.460938,55.175781,24.414062,-121.093750,28.320312,4.597965
1173,-474.121094,59.082031,39.550781,-316.894531,-562.011719,4.601871
1174,-253.906250,54.687500,34.179688,-85.937500,-355.468750,4.605777
1175,321.289062,45.410156,12.207031,258.300781,389.160156,4.609684
1176,510.253906,41.503906,13.671875,274.414062,707.031250,4.607534
1177,48.828125,50.781250,34.667969,-65.429688,133.789062,4.611441
1178,-458.984375,54.687500,46.875000,-318.847656,-569.335938,4.615347
1179,-304.199219,52.246094,40.039062,-122.070312,-416.503906,4.619253
1180,253.906250,39.062500,24.902344,232.910156,338.867188,4.623159
1181,537.109375,28.808594,21.972656,319.335938,760.253906,4.627066
1182,124.511719,40.527344,32.226562,-1.464844,242.187500,4.630972
1183,-431.152344,48.828125,46.875000,-292.968750,-532.226562,4.634878
1184,-348.144531,44.921875,42.968750,-145.507812,-506.347656,4.638784
1185,192.382812,35.156250,19.042969,198.242188,213.867188,4.642691
1186,561.035156,25.390625,14.160156,337.402344,682.617188,4.646597
1187,217.285156,34.179688,26.855469,38.085938,255.859375,4.650503
1188,-364.746094,35.644531,34.179688,-293.945312,-458.007812,4.649630
1189,-370.605469,31.250000,28.320312,-198.730469,-563.476562,4.653536
1190,142.089844,26.855469,12.207031,147.460938,94.238281,4.657442
1191,588.867188,24.414062,2.441406,338.867188,711.425781,4.661348
1192,301.757812,36.132812,16.113281,80.566406,394.042969,4.665255
1193,-293.945312,45.898438,39.550781,-257.812500,-371.093750,4.669161
1194,-405.273438,38.574219,30.761719,-230.468750,-561.035156,4.673067
1195,58.593750,28.320312,13.671875,102.539062,51.269531,4.676973
1196,559.082031,21.484375,12.207031,342.773438,662.597656,4.680880
1197,333.007812,10.742188,15.136719,103.515625,404.296875,4.684786
1198,-260.253906,8.789062,30.273438,-244.628906,-338.867188,4.688692
1199,-453.613281,18.066406,36.132812,-261.230469,-648.925781,4.692598
1200,-20.507812,15.136719,24.414062,59.570312,-102.050781,4.710538
1201,541.015625,11.718750,14.648438,355.468750,601.074219,4.714444
1202,398.437500,21.484375,18.066406,178.710938,511.230469,4.718351
1203,-190.429688,22.460938,32.714844,-193.847656,-178.710938,4.722257
1204,-475.585938,22.949219,41.992188,-275.390625,-625.488281,4.726163
1205,-110.351562,16.113281,31.250000,22.460938,-214.843750,4.730069
1206,465.332031,-1.464844,16.113281,323.730469,475.097656,4.733976
1207,416.992188,1.464844,23.437500,192.382812,481.445312,4.737882
1208,-127.929688,21.484375,41.503906,-164.062500,-188.476562,4.741788
1209,-486.328125,26.367188,48.828125,-296.875000,-709.960938,4.745694
1210,-176.269531,17.089844,37.597656,-27.832031,-340.820312,4.749601
1211,415.527344,10.253906,18.554688,303.710938,438.476562,4.753507
1212,467.773438,12.207031,19.042969,236.328125,578.125000,4.748023
1213,-42.480469,23.437500,37.109375,-120.117188,-117.187500,4.751930
1214,-473.632812,31.738281,49.316406,-312.011719,-697.753906,4.755836
1215,-228.515625,30.273438,38.574219,-70.800781,-384.277344,4.759742
1216,362.792969,21.972656,20.507812,281.250000,372.070312,4.763648
1217,518.554688,17.089844,19.042969,270.019531,651.855469,4.767555
1218,37.109375,26.855469,34.667969,-79.589844,54.687500,4.771461
1219,-450.683594,38.574219,44.921875,-315.429688,-614.257812,4.775367
1220,-264.160156,36.132812,28.808594,-118.164062,-424.804688,4.779273
1221,314.941406,36.132812,16.113281,240.722656,294.433594,4.783180
1222,570.312500,37.597656,16.113281,306.152344,703.125000,4.787086
1223,131.835938,31.250000,26.367188,-26.367188,225.097656,4.790992
1224,-416.503906,30.761719,35.644531,-307.128906,-537.597656,4.786566
1225,-316.406250,25.878906,30.761719,-148.925781,-492.675781,4.790473
1226,229.980469,14.160156,18.554688,210.449219,233.398438,4.794379
1227,571.289062,20.019531,16.113281,336.914062,708.984375,4.798285
1228,179.199219,20.019531,19.531250,17.089844,238.281250,4.802191
1229,-388.671875,41.015625,37.597656,-286.132812,-517.578125,4.806098
1230,-362.304688,49.804688,39.062500,-165.527344,-538.085938,4.810004
1231,148.437500,25.878906,23.437500,173.339844,140.136719,4.813910
1232,568.847656,25.390625,24.902344,358.398438,665.039062,4.817816
1233,251.953125,31.738281,36.621094,83.007812,295.898438,4.821723
1234,-332.031250,34.179688,51.269531,-257.324219,-441.894531,4.825629
1235,-409.667969,37.109375,46.875000,-202.148438,-567.871094,4.829535
1236,62.011719,23.437500,22.460938,130.859375,75.195312,4.845752
1237,541.503906,11.230469,7.812500,352.050781,711.914062,4.849659
1238,302.246094,11.230469,22.460938,113.281250,461.425781,4.853565
1239,-283.203125,32.714844,45.898438,-235.351562,-326.171875,4.857471
1240,-451.171875,32.714844,46.875000,-246.093750,-640.136719,4.861377
1241,-13.183594,8.300781,27.832031,79.101562,-77.636719,4.865284
1242,524.414062,6.835938,10.253906,342.285156,601.562500,4.869190
1243,351.562500,10.253906,14.160156,129.394531,417.480469,4.873096
1244,-226.562500,19.042969,29.296875,-227.539062,-307.617188,4.877002
1245,-479.980469,24.902344,35.644531,-286.621094,-688.964844,4.880909
1246,-91.308594,14.648438,23.437500,24.902344,-179.199219,4.884815
1247,485.839844,1.953125,13.183594,331.542969,551.269531,4.888721
1248,401.367188,11.230469,26.367188,186.523438,553.710938,4.880384
1249,-152.343750,24.902344,41.015625,-169.921875,-131.835938,4.884291
1250,-490.722656,23.437500,44.433594,-296.875000,-637.695312,4.888197
1251,-157.714844,17.089844,29.296875,-16.601562,-263.671875,4.892103
1252,436.523438,5.371094,8.300781,312.011719,476.074219,4.896009
1253,455.566406,3.906250,11.718750,225.585938,560.546875,4.899916
1254,-72.265625,18.554688,28.320312,-125.488281,-108.886719,4.903822
1255,-488.769531,25.390625,39.062500,-303.222656,-666.503906,4.907728
1256,-214.843750,22.460938,27.832031,-50.292969,-364.257812,4.911634
1257,382.812500,12.695312,10.742188,293.945312,389.648438,4.915541
1258,497.070312,11.230469,12.695312,258.789062,605.957031,4.919447
1259,2.441406,26.367188,24.414062,-90.820312,37.597656,4.923353
1260,-471.679688,24.414062,26.855469,-311.523438,-600.585938,4.939366
1261,-245.117188,20.019531,10.742188,-78.613281,-433.105469,4.943273
1262,345.214844,16.113281,8.300781,287.597656,298.828125,4.947179
1263,534.667969,13.671875,19.531250,304.199219,655.273438,4.951085
1264,74.707031,20.507812,28.320312,-42.968750,116.210938,4.954991
1265,-449.218750,22.949219,41.015625,-307.128906,-583.496094,4.958898
1266,-320.800781,23.925781,32.714844,-132.324219,-431.640625,4.962804
1267,239.257812,21.484375,17.089844,228.515625,288.085938,4.966710
1268,558.105469,21.972656,17.578125,327.148438,683.105469,4.970616
1269,156.738281,22.949219,30.273438,10.742188,200.683594,4.974523
1270,-417.480469,26.367188,46.875000,-295.898438,-533.203125,4.978429
1271,-374.511719,18.066406,43.457031,-179.199219,-520.507812,4.982335
1272,150.390625,-4.394531,24.414062,172.363281,173.339844,4.998833
1273,548.828125,-12.207031,19.531250,338.378906,739.746094,5.002740
1274,221.679688,5.859375,37.109375,58.105469,349.121094,5.006646
1275,-362.304688,21.484375,51.269531,-269.531250,-460.449219,5.010552
1276,-419.921875,12.695312,41.503906,-206.542969,-583.496094,5.014458
1277,72.753906,1.953125,25.390625,134.277344,53.222656,5.018365
1278,549.804688,-4.394531,21.972656,343.750000,655.761719,5.022271
1279,274.414062,2.441406,33.203125,89.355469,389.648438,5.026177
1280,-327.148438,11.718750,40.039062,-260.253906,-316.406250,5.030083
1281,-463.378906,10.742188,40.527344,-243.164062,-561.523438,5.033990
1282,-9.765625,8.789062,26.855469,90.332031,-10.253906,5.037896
1283,512.207031,7.812500,13.183594,347.656250,666.992188,5.041802
1284,321.289062,12.695312,25.878906,142.578125,479.003906,5.023134
1285,-260.742188,20.019531,42.480469,-219.726562,-270.019531,5.027040
1286,-484.863281,26.855469,43.457031,-267.578125,-649.902344,5.030947
1287,-73.242188,19.531250,32.714844,49.804688,-145.996094,5.034853
1288,490.234375,5.859375,19.531250,337.402344,625.488281,5.038759
1289,383.789062,12.207031,26.367188,171.875000,568.847656,5.042665
1290,-175.292969,28.320312,42.968750,-182.617188,-168.457031,5.046572
1291,-478.027344,38.574219,49.804688,-287.109375,-659.179688,5.050478
1292,-129.882812,29.785156,32.714844,-0.976562,-252.441406,5.054384
1293,456.054688,22.460938,18.554688,321.777344,508.789062,5.058290
1294,445.312500,28.320312,26.367188,210.937500,557.128906,5.062197
1295,-99.609375,33.691406,36.621094,-150.390625,-113.769531,5.066103
1296,-492.187500,30.761719,45.410156,-307.128906,-662.597656,5.065452
1297,-197.753906,22.949219,35.644531,-42.480469,-317.871094,5.069358
1298,394.531250,19.042969,17.578125,299.316406,445.800781,5.073265
1299,487.792969,25.390625,20.507812,254.394531,627.441406,5.077171
1300,-11.718750,28.808594,40.039062,-94.238281,-16.113281,5.081077
1301,-474.121094,24.902344,51.269531,-303.710938,-667.968750,5.084983
1302,-252.441406,19.042969,34.179688,-79.101562,-384.277344,5.088890
1303,335.937500,12.695312,16.601562,269.531250,398.925781,5.092796
1304,524.902344,12.695312,21.972656,287.109375,690.917969,5.096702
1305,50.292969,23.437500,38.085938,-56.640625,97.167969,5.100608
1306,-464.355469,35.156250,48.339844,-310.546875,-604.003906,5.104515
1307,-312.988281,29.785156,32.714844,-123.046875,-447.753906,5.108421
1308,266.113281,19.531250,17.089844,231.445312,293.457031,5.126011
1309,556.640625,23.437500,14.160156,311.035156,688.476562,5.129917
1310,126.953125,32.226562,24.414062,-13.183594,196.289062,5.133823
1311,-430.664062,39.062500,38.085938,-303.222656,-515.625000,5.137730
1312,-351.562500,38.085938,32.226562,-156.250000,-507.324219,5.141636
1313,197.753906,41.503906,14.160156,194.335938,159.179688,5.145542
1314,570.312500,47.851562,15.136719,339.355469,682.128906,5.149448
1315,199.707031,52.246094,31.250000,38.085938,266.113281,5.153355
1316,-394.042969,52.734375,38.085938,-295.898438,-513.183594,5.157261
1317,-399.414062,42.968750,30.273438,-198.730469,-569.335938,5.161167
1318,118.164062,43.945312,17.578125,150.390625,100.097656,5.165073
1319,556.152344,47.363281,7.812500,339.843750,670.898438,5.168980
1320,256.347656,44.921875,20.019531,72.265625,353.515625,5.169836
1321,-334.960938,39.550781,40.039062,-273.437500,-408.691406,5.173742
1322,-443.359375,33.203125,33.691406,-245.117188,-621.582031,5.177648
1323,20.996094,47.363281,24.414062,93.261719,-37.597656,5.181554
1324,533.691406,50.292969,17.089844,333.984375,610.351562,5.185461
1325,312.011719,37.597656,18.066406,102.050781,363.281250,5.189367
1326,-283.203125,42.480469,34.667969,-258.789062,-397.460938,5.193273
1327,-479.980469,50.292969,37.109375,-286.132812,-692.382812,5.197179
1328,-60.058594,54.199219,18.066406,36.621094,-147.949219,5.201086
1329,484.863281,43.945312,10.253906,319.824219,553.710938,5.204992
1330,346.679688,50.292969,26.855469,143.554688,437.500000,5.208898
1331,-222.167969,70.800781,41.503906,-214.355469,-291.503906,5.212804
1332,-503.417969,67.382812,42.480469,-298.339844,-752.929688,5.205952
1333,-134.765625,51.269531,30.761719,2.441406,-283.691406,5.209858
1334,444.824219,50.781250,15.136719,315.429688,498.535156,5.213764
1335,391.601562,69.335938,23.437500,186.523438,498.535156,5.217670
1336,-151.855469,67.871094,42.968750,-173.828125,-218.261719,5.221577
1337,-499.511719,65.429688,52.246094,-310.546875,-708.496094,5.225483
1338,-197.753906,61.523438,35.644531,-42.968750,-315.429688,5.229389
1339,393.554688,49.316406,17.578125,285.644531,400.390625,5.233295
1340,448.730469,53.222656,18.066406,214.355469,548.339844,5.237202
1341,-71.289062,55.175781,28.808594,-144.042969,-72.753906,5.241108
1342,-499.023438,55.664062,39.550781,-329.589844,-681.640625,5.245014
1343,-250.976562,46.875000,29.785156,-87.890625,-400.878906,5.248920
1344,336.425781,36.621094,16.601562,263.671875,349.609375,5.264540
1345,482.910156,41.015625,10.742188,258.789062,624.511719,5.268446
1346,0.000000,44.921875,24.414062,-89.843750,49.316406,5.272352
1347,-489.257812,51.269531,40.527344,-329.101562,-656.738281,5.276259
1348,-309.082031,51.269531,27.343750,-128.417969,-498.535156,5.280165
1349,275.390625,38.574219,15.625000,233.398438,213.867188,5.284071
1350,523.437500,39.550781,16.113281,288.085938,562.500000,5.287977
1351,86.425781,48.339844,26.855469,-56.152344,1.953125,5.291884
1352,-443.847656,45.898438,39.550781,-334.472656,-741.210938,5.295790
1353,-339.355469,39.062500,32.226562,-170.898438,-614.257812,5.299696
1354,209.960938,33.691406,19.042969,190.917969,129.394531,5.303602
1355,539.550781,29.785156,12.695312,317.871094,596.191406,5.307509
1356,149.414062,35.644531,27.343750,12.207031,180.664062,5.316161
1357,-417.968750,38.574219,48.828125,-300.781250,-539.550781,5.320067
1358,-388.671875,38.085938,39.550781,-192.382812,-594.238281,5.323974
1359,134.277344,33.691406,16.601562,160.156250,36.132812,5.327880
1360,556.152344,26.855469,12.207031,341.796875,636.230469,5.331786
1361,224.609375,21.484375,21.484375,52.246094,260.742188,5.335692
1362,-377.929688,30.273438,36.621094,-295.898438,-547.363281,5.339599
1363,-443.359375,31.738281,32.226562,-241.699219,-660.644531,5.343505
1364,48.828125,31.250000,19.042969,111.328125,-41.015625,5.347411
1365,542.480469,36.621094,16.113281,348.144531,584.472656,5.351317
1366,280.273438,34.667969,23.925781,95.703125,301.269531,5.355224
1367,-324.707031,33.203125,33.691406,-266.601562,-469.238281,5.359130
1368,-472.656250,26.855469,35.156250,-262.695312,-734.375000,5.346203
1369,-16.601562,14.160156,21.972656,79.101562,-152.832031,5.350109
1370,518.066406,9.765625,10.742188,350.585938,564.453125,5.354015
1371,342.285156,24.414062,17.089844,133.789062,388.671875,5.357922
1372,-238.769531,37.597656,37.109375,-232.421875,-377.929688,5.361828
1373,-495.117188,36.621094,47.363281,-290.527344,-733.886719,5.365734
1374,-94.238281,27.832031,30.273438,22.460938,-253.417969,5.369640
1375,496.582031,13.183594,16.601562,337.402344,470.703125,5.373547
1376,402.832031,15.136719,26.367188,180.664062,458.007812,5.377453
1377,-162.597656,21.484375,49.316406,-179.199219,-221.679688,5.381359
1378,-479.003906,30.761719,59.570312,-282.714844,-722.167969,5.385265
1379,-134.765625,41.015625,34.667969,-6.347656,-325.195312,5.389172
1380,456.542969,39.062500,9.765625,319.335938,488.769531,5.407405
1381,469.238281,27.832031,20.507812,224.121094,580.566406,5.411312
1382,-84.472656,31.738281,41.992188,-153.320312,-143.066406,5.415218
1383,-500.000000,46.875000,45.410156,-334.960938,-747.558594,5.419124
1384,-197.265625,45.898438,31.738281,-60.058594,-380.371094,5.423030
1385,402.343750,39.062500,18.554688,289.062500,423.339844,5.426937
1386,508.789062,42.480469,21.972656,250.000000,607.910156,5.430843
1387,-1.464844,53.222656,38.085938,-108.886719,-50.292969,5.434749
1388,-494.140625,42.968750,45.898438,-341.796875,-725.585938,5.438655
1389,-270.019531,24.414062,29.785156,-109.863281,-473.144531,5.442562
1390,341.308594,26.855469,13.671875,269.042969,363.281250,5.446468
1391,545.898438,39.550781,14.160156,296.386719,721.191406,5.450374
1392,77.148438,45.898438,32.714844,-55.175781,173.339844,5.446038
1393,-449.707031,52.734375,44.433594,-323.242188,-494.140625,5.449944
1394,-300.292969,45.410156,34.667969,-133.300781,-373.046875,5.453851
1395,275.390625,32.714844,19.531250,240.722656,327.636719,5.457757
1396,574.707031,31.250000,11.718750,324.707031,751.464844,5.461663
1397,156.738281,45.898438,29.296875,-2.929688,251.464844,5.465569
1398,-416.503906,52.734375,44.921875,-305.664062,-511.230469,5.469476
1399,-346.191406,40.039062,35.156250,-168.945312,-484.375000,5.473382
1400,208.984375,34.179688,18.066406,210.449219,234.375000,5.477288
1401,598.144531,34.667969,19.531250,374.023438,748.535156,5.481194
1402,232.421875,39.062500,29.785156,60.058594,329.101562,5.485101
1403,-371.093750,44.921875,41.992188,-286.621094,-417.480469,5.489007
1404,-388.671875,54.687500,39.062500,-200.683594,-530.273438,5.476989
1405,127.441406,46.386719,20.507812,165.527344,131.835938,5.480895
1406,592.773438,25.390625,8.789062,374.511719,757.812500,5.484801
1407,311.035156,26.367188,24.902344,101.562500,415.039062,5.488707
1408,-298.339844,43.945312,48.828125,-258.789062,-369.140625,5.492614
1409,-423.828125,45.410156,43.945312,-235.839844,-606.445312,5.496520
1410,48.339844,26.855469,27.832031,116.210938,10.253906,5.500426
1411,571.777344,10.742188,18.066406,369.140625,721.191406,5.504332
1412,352.050781,21.484375,26.367188,129.882812,482.910156,5.508239
1413,-253.906250,38.085938,40.527344,-242.187500,-281.250000,5.512145
1414,-469.238281,23.437500,35.156250,-279.785156,-592.285156,5.516051
1415,-41.992188,9.765625,20.996094,61.035156,-39.062500,5.519957
1416,526.367188,20.996094,11.718750,361.328125,697.753906,5.545414
1417,402.343750,32.714844,25.390625,176.269531,572.265625,5.549320
1418,-179.687500,44.433594,52.246094,-193.359375,-200.195312,5.553226
1419,-490.234375,45.410156,50.292969,-298.828125,-657.714844,5.557132
1420,-117.187500,34.179688,29.785156,2.929688,-201.660156,5.561039
1421,471.679688,37.597656,14.160156,335.937500,588.378906,5.564945
1422,437.500000,34.179688,23.437500,208.984375,651.855469,5.568851
1423,-108.398438,30.761719,46.386719,-165.039062,-68.847656,5.572757
1424,-498.046875,37.597656,51.269531,-319.335938,-622.070312,5.576664
1425,-187.500000,34.179688,35.156250,-35.156250,-214.355469,5.580570
1426,422.851562,20.019531,21.972656,316.894531,577.636719,5.584476
1427,489.746094,7.324219,29.785156,247.070312,696.777344,5.588382
1428,-41.015625,22.460938,41.503906,-119.140625,37.597656,5.585435
1429,-503.417969,44.433594,41.015625,-323.730469,-554.687500,5.589341
1430,-260.742188,45.410156,23.925781,-83.984375,-316.406250,5.593247
1431,346.679688,35.644531,7.812500,283.691406,420.410156,5.597153
1432,513.183594,30.761719,5.371094,283.203125,709.960938,5.601060
1433,26.367188,41.015625,22.460938,-75.683594,127.441406,5.604966
1434,-479.492188,33.691406,39.062500,-322.753906,-566.894531,5.608872
1435,-307.128906,26.367188,23.437500,-118.652344,-418.945312,5.612778
1436,280.273438,28.320312,-0.976562,251.464844,335.449219,5.616685
1437,566.894531,26.367188,-0.488281,327.148438,767.578125,5.620591
1438,106.933594,35.156250,17.578125,-28.320312,263.183594,5.624497
1439,-460.937500,36.132812,36.132812,-324.218750,-520.996094,5.628403
1440,-344.238281,39.062500,37.597656,-146.484375,-473.144531,5.632062
1441,209.472656,38.574219,20.996094,222.167969,259.277344,5.635969
1442,555.664062,25.390625,13.671875,346.679688,776.367188,5.639875
1443,170.410156,23.437500,35.644531,31.738281,342.773438,5.643781
1444,-417.480469,30.273438,52.734375,-293.457031,-430.175781,5.647687
1445,-410.156250,40.527344,46.875000,-185.058594,-520.996094,5.651594
1446,100.097656,19.531250,31.738281,161.132812,88.378906,5.655500
1447,520.996094,7.812500,27.343750,329.589844,681.152344,5.659406
1448,217.773438,22.949219,34.667969,61.035156,340.820312,5.663312
1449,-387.207031,9.277344,42.968750,-297.851562,-475.097656,5.667219
1450,-476.074219,19.531250,54.199219,-256.835938,-637.695312,5.671125
1451,5.859375,26.855469,48.828125,99.121094,22.949219,5.675031
1452,487.792969,9.277344,34.179688,322.753906,691.894531,5.690044
1453,235.839844,10.253906,45.898438,65.917969,425.781250,5.693951
1454,-375.000000,7.812500,66.406250,-312.500000,-382.812500,5.697857
1455,-554.687500,51.269531,68.847656,-327.148438,-669.921875,5.701763
1456,-120.605469,56.640625,64.941406,7.812500,-111.328125,5.705669
1457,407.226562,-8.789062,46.386719,269.531250,601.074219,5.709576
1458,264.160156,-0.488281,42.968750,69.824219,487.304688,5.713482
1459,-321.777344,22.460938,57.617188,-302.734375,-242.675781,5.717388
1460,-604.003906,1.464844,54.199219,-380.859375,-652.343750,5.721294
1461,-198.730469,-4.882812,45.410156,-56.152344,-177.246094,5.725201
1462,388.671875,-4.882812,28.320312,271.484375,573.730469,5.729107
1463,312.988281,-1.953125,27.832031,125.000000,588.867188,5.733013
1464,-239.257812,22.949219,52.246094,-246.093750,-117.187500,5.725641
1465,-585.449219,23.925781,62.988281,-363.281250,-661.621094,5.729548
1466,-258.300781,5.859375,43.945312,-68.847656,-259.765625,5.733454
1467,349.121094,0.976562,22.949219,275.878906,505.371094,5.737360
1468,381.347656,4.882812,28.320312,193.359375,617.187500,5.741266
1469,-141.601562,13.671875,54.199219,-164.550781,-29.785156,5.745173
1470,-555.175781,25.390625,60.546875,-347.167969,-605.468750,5.749079
1471,-305.664062,22.949219,36.132812,-112.304688,-286.132812,5.752985
1472,290.527344,12.695312,22.949219,235.839844,458.007812,5.756891
1473,446.777344,15.136719,39.062500,235.839844,665.527344,5.760798
1474,-29.296875,15.625000,56.152344,-110.351562,29.785156,5.764704
1475,-516.113281,0.000000,60.058594,-342.773438,-626.464844,5.768610
1476,-321.777344,-7.324219,51.269531,-124.511719,-386.230469,5.785911
1477,257.324219,-5.371094,31.738281,231.933594,402.832031,5.789817
1478,489.257812,-2.929688,28.808594,274.414062,757.812500,5.793723
1479,49.316406,8.789062,41.503906,-74.707031,214.843750,5.797629
1480,-475.097656,28.320312,57.617188,-342.773438,-502.929688,5.801536
1481,-348.632812,31.250000,52.734375,-154.785156,-443.359375,5.805442
1482,219.238281,12.207031,33.203125,207.031250,251.464844,5.809348
1483,562.011719,5.371094,27.343750,317.382812,741.210938,5.813254
1484,172.363281,13.183594,37.109375,-3.417969,278.808594,5.817161
1485,-402.343750,29.296875,49.804688,-315.917969,-499.511719,5.821067
1486,-370.117188,31.738281,38.574219,-188.476562,-519.531250,5.824973
1487,152.343750,24.414062,16.113281,160.644531,168.945312,5.828879
1488,573.730469,30.761719,13.183594,327.636719,731.933594,5.825589
1489,256.835938,40.527344,25.878906,44.921875,344.238281,5.829495
1490,-343.261719,43.945312,30.273438,-295.410156,-449.707031,5.833402
1491,-389.648438,43.457031,25.390625,-213.867188,-585.937500,5.837308
1492,99.609375,37.109375,2.929688,133.300781,67.382812,5.841214
1493,568.847656,31.738281,-14.160156,337.402344,676.269531,5.845120
1494,318.359375,34.179688,1.953125,85.937500,378.417969,5.849027
1495,-269.042969,44.921875,27.832031,-257.324219,-389.160156,5.852933
1496,-421.386719,47.851562,28.320312,-247.558594,-616.699219,5.856839
1497,23.925781,41.015625,10.253906,78.613281,-3.906250,5.860745
1498,563.476562,40.527344,-3.906250,337.890625,680.664062,5.864652
1499,378.417969,38.085938,3.417969,127.929688,493.652344,5.868558
1500,-212.402344,47.851562,23.437500,-229.003906,-252.441406,5.863187
1501,-449.218750,60.546875,29.785156,-272.460938,-611.328125,5.867093
1502,-40.039062,55.175781,15.136719,53.222656,-97.656250,5.870999
1503,529.785156,40.039062,0.976562,353.027344,616.210938,5.874906
1504,425.781250,33.691406,2.929688,184.082031,527.343750,5.878812
1505,-139.648438,39.550781,18.066406,-175.292969,-200.195312,5.882718
1506,-467.773438,44.921875,25.878906,-285.156250,-648.437500,5.886624
1507,-115.722656,47.363281,16.601562,10.253906,-221.679688,5.890531
1508,478.515625,33.203125,1.953125,337.890625,547.851562,5.894437
1509,470.703125,36.132812,6.347656,222.656250,630.371094,5.898343
1510,-68.847656,52.246094,25.390625,-143.554688,-48.339844,5.902249
1511,-470.214844,40.527344,34.667969,-303.710938,-586.914062,5.906156
1512,-182.128906,33.691406,21.484375,-31.250000,-249.511719,5.926522
1513,415.039062,26.367188,3.417969,315.917969,484.863281,5.930429
1514,513.671875,27.343750,7.812500,271.972656,666.503906,5.934335
1515,8.300781,41.015625,25.878906,-84.960938,21.972656,5.938241
1516,-466.308594,38.574219,35.156250,-300.292969,-615.722656,5.942147
1517,-245.605469,31.738281,26.367188,-65.429688,-366.699219,5.946054
1518,351.562500,25.878906,9.277344,289.062500,361.328125,5.949960
1519,544.921875,18.554688,4.394531,298.339844,653.320312,5.953866
1520,72.753906,25.878906,14.648438,-50.781250,123.046875,5.957772
1521,-437.011719,40.527344,28.808594,-300.292969,-557.128906,5.961679
1522,-276.855469,46.386719,22.460938,-104.980469,-448.242188,5.965585
1523,283.203125,34.179688,2.929688,257.324219,284.667969,5.969491
1524,575.683594,33.203125,3.906250,342.773438,713.378906,5.965555
1525,171.875000,41.992188,20.507812,13.183594,202.148438,5.969461
1526,-385.742188,51.269531,28.808594,-284.667969,-558.593750,5.973368
1527,-323.730469,43.457031,16.601562,-143.554688,-530.273438,5.977274
1528,208.984375,18.066406,-0.488281,205.566406,183.593750,5.981180
1529,586.425781,11.230469,-1.953125,347.656250,725.585938,5.985086
1530,233.886719,22.460938,13.671875,45.410156,298.828125,5.988993
1531,-361.328125,31.250000,25.878906,-286.621094,-481.445312,5.992899
1532,-375.488281,26.367188,23.437500,-198.242188,-555.175781,5.996805
1533,142.578125,28.320312,10.253906,153.808594,72.265625,6.000711
1534,593.750000,31.250000,3.906250,348.144531,660.644531,6.004618
1535,295.410156,28.320312,15.136719,76.171875,330.566406,6.008524
1536,-317.382812,27.343750,25.390625,-268.554688,-434.082031,6.008929
1537,-425.292969,29.296875,31.738281,-227.050781,-612.792969,6.012835
1538,44.433594,18.554688,23.437500,118.652344,-21.972656,6.016741
1539,544.433594,11.718750,7.812500,357.910156,598.632812,6.020648
1540,318.847656,7.812500,11.718750,124.511719,402.343750,6.024554
1541,-277.343750,13.671875,30.761719,-239.746094,-326.171875,6.028460
1542,-473.144531,29.785156,35.644531,-270.019531,-640.136719,6.032366
1543,-40.527344,23.925781,22.949219,62.988281,-94.238281,6.036273
1544,511.230469,9.765625,14.160156,351.074219,624.511719,6.040179
1545,366.699219,10.742188,21.484375,161.132812,501.953125,6.044085
1546,-207.031250,24.414062,30.761719,-203.613281,-254.882812,6.047991
1547,-497.558594,17.578125,34.179688,-292.968750,-695.800781,6.051898
1548,-120.117188,3.906250,24.414062,15.625000,-225.097656,6.065400
1549,477.539062,8.300781,15.625000,338.867188,516.601562,6.069306
1550,425.781250,8.789062,20.507812,198.242188,531.738281,6.073212
1551,-114.257812,28.808594,40.039062,-158.691406,-149.902344,6.077118
1552,-476.562500,42.480469,45.410156,-296.386719,-669.921875,6.081025
1553,-179.687500,10.253906,28.320312,-24.902344,-286.132812,6.084931
1554,430.664062,-0.488281,21.972656,317.871094,489.746094,6.088837
1555,487.792969,8.789062,23.925781,245.605469,628.906250,6.092743
1556,-42.480469,17.578125,41.992188,-109.375000,-35.644531,6.096650
1557,-480.957031,31.250000,55.175781,-303.710938,-649.414062,6.100556
1558,-232.910156,38.085938,36.621094,-64.941406,-353.515625,6.104462
1559,372.070312,47.363281,22.460938,292.968750,396.484375,6.108368
1560,520.996094,36.621094,15.136719,279.785156,672.851562,6.108079
1561,36.132812,26.367188,25.390625,-76.660156,88.867188,6.111986
1562,-452.148438,38.574219,46.386719,-310.058594,-592.285156,6.115892
1563,-277.832031,39.062500,39.062500,-104.980469,-431.152344,6.119798
1564,305.664062,38.085938,22.949219,250.976562,308.593750,6.123704
1565,558.105469,33.691406,15.136719,307.128906,701.171875,6.127611
1566,117.675781,52.734375,27.832031,-26.367188,136.718750,6.131517
1567,-427.246094,64.941406,39.550781,-311.035156,-604.980469,6.135423
1568,-332.031250,39.550781,24.902344,-160.644531,-514.160156,6.139329
1569,216.796875,24.414062,9.765625,194.335938,190.917969,6.143236
1570,564.453125,30.273438,9.277344,319.824219,684.570312,6.147142
1571,185.058594,40.527344,18.066406,3.906250,212.890625,6.151048
1572,-395.996094,46.875000,31.250000,-314.941406,-554.687500,6.157947
1573,-372.558594,50.781250,28.320312,-193.359375,-562.500000,6.161853
1574,157.714844,46.386719,8.300781,165.039062,122.558594,6.165759
1575,586.425781,55.175781,4.882812,350.585938,714.355469,6.169665
1576,258.300781,55.175781,23.437500,65.917969,387.207031,6.173572
1577,-348.144531,44.921875,44.921875,-285.156250,-405.273438,6.177478
1578,-429.687500,39.550781,38.085938,-231.933594,-617.187500,6.181384
1579,54.687500,29.296875,19.042969,116.210938,19.531250,6.185290
1580,551.269531,23.925781,18.554688,351.562500,662.109375,6.189197
1581,298.339844,31.738281,33.203125,104.492188,386.230469,6.193103
1582,-298.828125,44.921875,48.339844,-256.347656,-347.656250,6.197009
1583,-458.984375,43.945312,50.292969,-259.277344,-638.183594,6.200915
1584,-14.160156,18.066406,31.250000,68.359375,-44.921875,6.206068
1585,523.437500,-1.464844,17.089844,338.867188,695.800781,6.209974
1586,360.839844,12.207031,30.273438,146.484375,534.667969,6.213880
1587,-219.238281,21.972656,45.898438,-218.750000,-227.050781,6.217787
1588,-478.515625,20.507812,51.757812,-289.062500,-678.222656,6.221693
1589,-89.355469,10.253906,37.109375,21.484375,-181.152344,6.225599
1590,492.187500,8.300781,26.855469,336.425781,597.656250,6.229505
1591,413.574219,18.554688,36.621094,187.500000,536.621094,6.233412
1592,-162.597656,11.230469,38.574219,-188.964844,-195.312500,6.237318
1593,-500.000000,6.347656,42.968750,-307.617188,-716.308594,6.241224
1594,-154.296875,6.835938,31.738281,-17.089844,-286.132812,6.245130
1595,444.335938,6.835938,17.578125,318.847656,540.039062,6.249037
1596,455.566406,8.300781,24.902344,228.515625,640.625000,6.247203
1597,-76.171875,22.949219,40.039062,-139.160156,-23.925781,6.251109
1598,-492.187500,26.855469,46.875000,-312.500000,-614.746094,6.255015
1599,-220.703125,20.019531,36.621094,-51.757812,-296.386719,6.258921
1600,383.300781,19.531250,16.601562,294.921875,478.027344,6.262828
1601,505.371094,23.437500,15.136719,265.136719,664.550781,6.266734
1602,-3.906250,23.925781,33.691406,-100.585938,5.859375,6.270640
1603,-495.117188,16.113281,40.527344,-333.984375,-635.742188,6.274546
1604,-280.761719,10.742188,22.460938,-107.421875,-389.160156,6.278453
1605,312.011719,6.835938,8.789062,253.417969,375.000000,6.282359
1606,524.414062,13.671875,17.089844,294.921875,677.734375,6.286265
1607,70.312500,21.972656,25.878906,-55.664062,94.726562,6.290171
1608,-463.378906,24.902344,32.714844,-334.472656,-625.976562,6.286807
1609,-334.960938,27.832031,29.785156,-149.414062,-521.484375,6.290713
1610,239.257812,17.089844,14.648438,216.796875,239.257812,6.294619
1611,549.316406,5.859375,9.765625,311.523438,703.125000,6.298526
1612,128.906250,17.089844,22.949219,-25.390625,205.566406,6.302432
1613,-438.476562,37.597656,41.503906,-328.125000,-583.496094,6.306338
1614,-381.835938,41.503906,40.527344,-192.871094,-582.031250,6.310244
1615,158.691406,30.273438,19.042969,166.015625,117.187500,6.314151
1616,564.453125,15.136719,11.718750,325.195312,637.695312,6.318057
1617,200.195312,10.742188,25.390625,15.136719,254.394531,6.321963
1618,-409.667969,28.320312,37.597656,-324.218750,-518.554688,6.325869
1619,-440.917969,37.597656,32.714844,-243.652344,-694.824219,6.329776
1620,68.847656,30.273438,20.996094,116.699219,-39.062500,6.351172
1621,536.621094,26.855469,13.671875,337.890625,611.816406,6.355078
1622,245.117188,29.296875,19.042969,70.800781,275.878906,6.358984
1623,-364.257812,43.945312,41.015625,-285.156250,-498.535156,6.362890
1624,-500.000000,41.015625,42.968750,-267.578125,-729.980469,6.366797
1625,-14.160156,30.273438,20.507812,81.542969,-121.093750,6.370703
1626,533.691406,25.878906,15.625000,356.445312,593.750000,6.374609
1627,312.011719,24.902344,37.109375,128.906250,392.089844,6.378515
1628,-294.921875,43.457031,56.152344,-247.558594,-358.398438,6.382422
1629,-510.742188,44.921875,52.246094,-288.085938,-703.125000,6.386328
1630,-85.449219,22.949219,33.691406,44.433594,-156.738281,6.390234
1631,490.234375,14.648438,18.554688,347.167969,609.375000,6.394140
1632,358.398438,17.578125,22.460938,162.109375,520.996094,6.387102
1633,-230.957031,31.250000,43.945312,-220.214844,-254.394531,6.391008
1634,-527.343750,38.574219,52.734375,-320.800781,-735.839844,6.394914
1635,-142.089844,23.437500,31.250000,-5.371094,-289.550781,6.398820
1636,480.468750,12.207031,13.671875,342.285156,519.042969,6.402727
1637,453.125000,26.855469,26.367188,225.097656,557.617188,6.406633
1638,-130.371094,45.898438,48.339844,-163.574219,-210.449219,6.410539
1639,-534.667969,40.039062,49.804688,-335.449219,-769.531250,6.414445
1640,-214.843750,20.996094,28.808594,-51.757812,-347.656250,6.418352
1641,416.503906,13.671875,17.578125,317.382812,438.476562,6.422258
1642,494.140625,16.113281,22.460938,251.953125,592.773438,6.426164
1643,-61.523438,23.437500,39.062500,-132.812500,-71.777344,6.430070
1644,-530.761719,34.179688,49.804688,-347.656250,-757.324219,6.430618
1645,-260.742188,34.179688,31.250000,-94.726562,-502.929688,6.434524
1646,370.117188,23.437500,12.207031,293.945312,343.750000,6.438430
1647,559.082031,21.972656,14.160156,307.617188,642.578125,6.442337
1648,53.222656,29.785156,30.761719,-68.847656,2.441406,6.446243
1649,-502.929688,23.437500,41.503906,-349.609375,-722.167969,6.450149
1650,-314.453125,16.601562,27.343750,-142.089844,-573.242188,6.454055
1651,309.570312,19.042969,6.347656,253.417969,222.656250,6.457962
1652,596.679688,26.855469,9.277344,342.773438,691.406250,6.461868
1653,124.023438,26.855469,22.949219,-17.089844,165.039062,6.465774
1654,-482.910156,22.949219,33.691406,-332.031250,-607.421875,6.469680
1655,-368.164062,25.390625,27.832031,-171.386719,-552.734375,6.473587
1656,228.515625,17.089844,14.648438,213.867188,171.386719,6.487111
1657,593.750000,4.882812,7.812500,358.886719,705.078125,6.491017
1658,197.753906,23.437500,23.925781,34.179688,292.968750,6.494923
1659,-404.785156,33.203125,54.199219,-288.085938,-510.253906,6.498830
1660,-388.671875,20.019531,53.710938,-158.203125,-617.675781,6.502736
1661,158.691406,18.554688,25.390625,204.589844,57.617188,6.506642
1662,590.332031,20.019531,11.230469,374.511719,700.195312,6.510548
1663,259.765625,35.644531,28.320312,85.449219,385.742188,6.514455
1664,-369.628906,48.828125,43.945312,-283.691406,-392.578125,6.518361
1665,-469.238281,40.527344,37.597656,-246.582031,-643.066406,6.522267
1666,55.175781,33.691406,14.160156,125.000000,-18.066406,6.526173
1667,586.914062,41.015625,0.488281,370.117188,690.429688,6.530080
1668,336.425781,56.640625,15.625000,120.605469,421.386719,6.525008
1669,-314.453125,51.269531,22.949219,-281.738281,-379.882812,6.528914
1670,-515.625000,35.156250,17.089844,-312.988281,-700.195312,6.532820
1671,-20.019531,28.808594,2.441406,62.500000,-100.097656,6.536727
1672,563.964844,32.226562,-5.371094,365.722656,655.273438,6.540633
1673,382.812500,46.386719,4.394531,152.343750,501.953125,6.544539
1674,-246.582031,58.593750,16.113281,-245.117188,-292.480469,6.548445
1675,-519.531250,60.546875,21.484375,-324.218750,-686.523438,6.552352
1676,-76.171875,48.828125,5.371094,18.066406,-136.718750,6.556258
1677,542.480469,43.945312,-0.488281,351.562500,654.296875,6.560164
1678,458.984375,57.128906,19.531250,198.242188,634.277344,6.564070
1679,-151.367188,56.152344,30.273438,-194.335938,-121.582031,6.567977
1680,-520.507812,48.339844,33.203125,-329.589844,-684.082031,6.585461
1681,-154.296875,51.269531,22.460938,-14.160156,-238.769531,6.589367
1682,462.890625,38.574219,2.441406,343.261719,582.519531,6.593274
1683,490.722656,30.273438,8.789062,252.441406,663.574219,6.597180
1684,-37.597656,38.574219,31.250000,-125.976562,-37.597656,6.601086
1685,-489.257812,42.480469,40.527344,-321.777344,-659.179688,6.604992
1686,-221.191406,36.621094,20.507812,-60.058594,-321.777344,6.608899
1687,423.828125,33.691406,0.976562,319.824219,452.636719,6.612805
1688,566.894531,34.179688,4.394531,298.828125,662.109375,6.616711
1689,26.367188,41.015625,20.507812,-84.472656,40.039062,6.620617
1690,-482.421875,50.781250,35.644531,-326.660156,-612.304688,6.624524
1691,-270.507812,49.804688,25.390625,-97.656250,-412.109375,6.628430
1692,351.074219,44.921875,8.789062,283.203125,339.843750,6.631003
1693,593.750000,35.644531,5.859375,331.542969,740.234375,6.634909
1694,96.679688,28.808594,20.019531,-36.621094,196.289062,6.638815
1695,-468.750000,37.597656,39.062500,-332.519531,-532.714844,6.642721
1696,-339.355469,43.457031,30.761719,-148.437500,-447.753906,6.646628
1697,256.835938,41.015625,11.230469,236.816406,311.523438,6.650534
1698,607.910156,41.992188,10.742188,357.421875,814.941406,6.654440
1699,180.664062,45.898438,23.437500,14.648438,308.105469,6.658346
1700,-439.453125,51.757812,38.574219,-317.382812,-505.859375,6.662253
1701,-403.808594,41.015625,33.691406,-187.988281,-542.968750,6.666159
1702,176.757812,26.367188,10.253906,184.570312,143.066406,6.670065
1703,605.957031,29.296875,6.347656,363.769531,707.519531,6.673971
1704,246.582031,45.410156,29.785156,63.964844,341.796875,6.667665
1705,-381.835938,51.269531,39.550781,-292.968750,-433.105469,6.671571
1706,-434.082031,33.691406,28.320312,-229.980469,-569.824219,6.675478
1707,94.726562,30.761719,16.113281,139.160156,110.351562,6.679384
1708,591.308594,30.273438,4.394531,372.070312,759.765625,6.683290
1709,302.734375,33.203125,14.160156,105.957031,446.777344,6.687196
1710,-324.218750,42.480469,37.109375,-268.066406,-372.070312,6.691103
1711,-458.496094,42.480469,40.527344,-255.371094,-651.367188,6.695009
1712,24.414062,33.203125,19.531250,94.726562,-11.718750,6.698915
1713,577.148438,21.484375,8.300781,366.210938,711.425781,6.702821
1714,384.765625,25.390625,24.414062,147.949219,521.484375,6.706728
1715,-238.769531,27.343750,34.667969,-245.117188,-265.136719,6.710634
1716,-484.375000,35.644531,32.714844,-295.898438,-666.992188,6.701379
1717,-60.546875,40.527344,21.484375,45.898438,-137.207031,6.705286
1718,516.601562,37.109375,12.207031,363.769531,629.882812,6.709192
1719,416.015625,49.316406,26.367188,206.054688,583.007812,6.713098
1720,-169.433594,47.363281,44.921875,-184.082031,-164.550781,6.717004
1721,-526.855469,32.226562,41.992188,-314.453125,-678.710938,6.720911
1722,-149.902344,23.925781,25.878906,-11.718750,-244.140625,6.724817
1723,483.886719,8.300781,15.625000,333.984375,563.964844,6.728723
1724,460.449219,4.882812,15.625000,221.679688,636.230469,6.732629
1725,-109.375000,22.460938,33.691406,-164.062500,-51.757812,6.736536
1726,-517.089844,31.250000,44.433594,-327.148438,-631.835938,6.740442
1727,-214.843750,19.531250,22.460938,-52.734375,-312.011719,6.744348
1728,418.945312,1.464844,7.812500,312.988281,501.464844,6.765988
1729,516.113281,3.417969,12.695312,265.625000,746.582031,6.769894
1730,-33.203125,20.996094,32.226562,-118.164062,74.707031,6.773800
1731,-510.742188,26.855469,41.992188,-335.937500,-614.257812,6.777706
1732,-266.113281,32.714844,28.320312,-90.820312,-359.863281,6.781613
1733,366.210938,31.738281,20.507812,287.597656,420.410156,6.785519
1734,560.546875,20.507812,22.460938,310.058594,733.398438,6.789425
1735,62.011719,30.761719,34.667969,-58.593750,126.464844,6.793331
1736,-476.074219,35.644531,46.386719,-332.031250,-616.699219,6.797238
1737,-314.941406,24.902344,31.738281,-131.835938,-480.468750,6.801144
1738,285.644531,27.343750,17.578125,252.929688,288.085938,6.805050
1739,589.355469,45.898438,16.113281,347.167969,756.347656,6.808956
1740,156.250000,63.964844,29.785156,4.394531,255.859375,6.808449
1741,-439.453125,59.082031,43.457031,-312.011719,-571.289062,6.812356
1742,-367.187500,46.875000,30.273438,-164.550781,-564.453125,6.816262
1743,204.101562,39.062500,15.625000,216.796875,184.082031,6.820168
1744,596.191406,31.250000,10.742188,371.582031,742.187500,6.824074
1745,222.656250,29.296875,21.484375,46.875000,322.753906,6.827981
1746,-403.320312,37.597656,37.597656,-300.292969,-496.093750,6.831887
1747,-424.316406,45.410156,39.062500,-201.171875,-591.308594,6.835793
1748,122.070312,37.597656,27.343750,167.480469,82.519531,6.839699
1749,591.796875,26.855469,16.113281,370.605469,666.015625,6.843606
1750,268.066406,20.507812,23.925781,84.960938,359.863281,6.847512
1751,-365.234375,23.437500,38.574219,-277.343750,-401.367188,6.851418
1752,-468.261719,22.949219,38.085938,-244.628906,-637.695312,6.845098
1753,41.503906,23.925781,30.273438,114.746094,-43.457031,6.849004
1754,575.195312,28.808594,19.531250,384.277344,677.246094,6.852910
1755,340.820312,28.320312,25.390625,142.578125,468.261719,6.856817
1756,-276.855469,35.156250,39.062500,-240.722656,-355.957031,6.860723
1757,-473.632812,45.898438,40.039062,-267.578125,-697.753906,6.864629
1758,-34.667969,40.527344,22.460938,69.824219,-113.769531,6.868535
1759,534.667969,24.414062,5.371094,362.792969,637.695312,6.872442
1760,394.042969,30.761719,12.695312,163.085938,546.386719,6.876348
1761,-195.312500,39.550781,29.785156,-214.843750,-209.472656,6.880254
1762,-491.210938,36.621094,35.644531,-301.269531,-683.105469,6.884160
1763,-109.863281,34.179688,18.554688,9.277344,-189.453125,6.888067
1764,497.558594,39.062500,4.394531,349.121094,604.980469,6.907196
1765,440.429688,39.062500,12.695312,216.796875,618.652344,6.911102
1766,-128.417969,39.550781,31.738281,-166.503906,-93.261719,6.915009
1767,-500.976562,42.968750,40.527344,-314.453125,-643.554688,6.918915
1768,-179.199219,46.875000,34.667969,-20.019531,-264.648438,6.922821
1769,444.335938,40.527344,25.390625,346.679688,511.230469,6.926727
1770,496.093750,30.273438,21.972656,268.066406,669.921875,6.930634
1771,-49.804688,35.644531,31.738281,-120.117188,-20.019531,6.934540
1772,-508.300781,46.386719,42.480469,-321.289062,-680.175781,6.938446
1773,-256.835938,40.039062,28.320312,-72.265625,-341.796875,6.942352
1774,366.699219,22.949219,15.625000,299.316406,454.101562,6.946259
1775,521.972656,20.019531,17.578125,292.480469,727.539062,6.950165
1776,16.113281,27.832031,27.343750,-85.449219,149.414062,6.938419
1777,-488.769531,26.855469,36.132812,-339.355469,-554.199219,6.942325
1778,-303.222656,18.066406,21.972656,-132.812500,-415.039062,6.946232
1779,267.089844,1.464844,1.464844,231.933594,319.335938,6.950138
1780,526.855469,-1.953125,1.953125,295.410156,727.050781,6.954044
1781,117.675781,20.019531,24.902344,-38.574219,198.730469,6.957950
1782,-460.449219,18.066406,39.550781,-328.125000,-546.386719,6.961857
