,TP9,AF7,AF8,TP10,Right AUX,timestamps
0,-19.042969,19.531250,28.808594,33.203125,87.402344,0.000000
1,131.835938,16.601562,22.949219,75.683594,560.546875,0.003906
2,130.859375,22.949219,26.367188,41.503906,417.968750,0.007812
3,-11.718750,27.832031,31.738281,-15.136719,-114.746094,0.011719
4,-101.074219,33.203125,36.132812,-20.996094,-386.230469,0.015625
5,-30.273438,32.714844,33.691406,29.785156,-54.199219,0.019531
6,124.511719,28.808594,28.320312,83.496094,474.121094,0.023438
7,134.277344,26.367188,26.855469,59.570312,471.191406,0.027344
8,-0.488281,-0.488281,-0.488281,-0.488281,-0.488281,0.031250
9,-0.488281,0.000000,-0.488281,-0.488281,-2.441406,0.035156
10,4.882812,0.488281,0.488281,2.441406,31.738281,0.039062
11,-12.207031,-1.464844,-2.441406,-6.835938,-68.359375,0.042969
12,46.875000,7.324219,12.695312,29.296875,294.433594,0.055339
13,133.789062,16.601562,29.785156,65.429688,890.625000,0.059246
14,27.832031,21.972656,32.714844,11.230469,471.191406,0.063152
15,-118.164062,27.343750,34.179688,-32.226562,-53.222656,0.067058
16,-91.308594,24.902344,34.179688,4.882812,151.367188,0.070964
17,69.335938,24.414062,32.226562,67.382812,682.128906,0.074871
18,143.066406,20.507812,27.343750,62.988281,819.824219,0.078777
19,47.363281,18.066406,33.691406,10.253906,359.375000,0.082683
20,-100.585938,18.554688,39.062500,-33.203125,-135.742188,0.086589
21,-95.214844,20.019531,41.992188,-4.394531,-15.625000,0.090496
22,59.082031,30.273438,37.109375,65.429688,500.000000,0.094402
23,167.480469,38.574219,28.808594,88.378906,752.929688,0.098308
24,76.171875,33.691406,28.808594,26.855469,316.894531,0.095294
25,-95.703125,34.667969,35.644531,-39.550781,-231.445312,0.099200
26,-104.980469,37.597656,40.039062,-13.671875,-140.136719,0.103106
27,36.132812,28.320312,34.179688,51.757812,373.046875,0.107012
28,149.902344,19.042969,32.714844,75.683594,669.921875,0.110919
29,81.542969,16.113281,30.273438,27.343750,305.175781,0.114825
30,-82.519531,18.554688,29.296875,-35.644531,-271.972656,0.118731
31,-119.140625,18.066406,33.691406,-27.832031,-266.113281,0.122637
32,16.113281,28.808594,31.738281,39.550781,231.933594,0.126544
33,142.578125,29.296875,24.902344,71.289062,616.699219,0.130450
34,88.867188,28.808594,26.367188,23.437500,355.468750,0.134356
35,-57.617188,31.738281,30.273438,-32.226562,-216.796875,0.138262
36,-116.699219,15.625000,25.878906,-30.273438,-306.152344,0.135523
37,-14.160156,11.230469,23.925781,24.902344,149.902344,0.139430
38,138.671875,18.554688,18.554688,68.847656,629.882812,0.143336
39,118.164062,28.320312,17.578125,36.621094,442.382812,0.147242
40,-35.156250,33.691406,31.250000,-18.066406,-171.386719,0.151148
41,-113.769531,30.273438,33.691406,-25.390625,-384.277344,0.155055
42,-35.156250,20.507812,20.996094,13.183594,42.480469,0.158961
43,119.628906,20.507812,18.066406,53.710938,569.824219,0.162867
44,121.582031,32.714844,23.437500,32.226562,433.105469,0.166773
45,-23.437500,35.156250,22.949219,-26.367188,-160.644531,0.170680
46,-116.210938,38.085938,27.343750,-41.015625,-441.406250,0.174586
47,-32.226562,51.269531,36.132812,14.648438,-32.714844,0.178492
48,125.976562,47.363281,30.273438,65.429688,514.160156,0.195260
49,135.742188,35.156250,27.343750,48.339844,477.050781,0.199166
50,1.464844,30.761719,27.832031,-3.417969,-41.015625,0.203072
51,-111.328125,32.714844,24.414062,-27.832031,-396.972656,0.206979
52,-55.664062,33.203125,27.343750,12.695312,-103.515625,0.210885
53,103.515625,27.832031,27.832031,67.871094,462.890625,0.214791
54,149.902344,38.574219,29.296875,61.523438,509.765625,0.218697
55,28.320312,35.156250,26.367188,-3.417969,-26.855469,0.222604
56,-104.492188,26.367188,22.949219,-45.410156,-483.398438,0.226510
57,-66.894531,28.808594,21.484375,-2.441406,-231.933594,0.230416
58,93.750000,36.132812,26.855469,60.546875,384.765625,0.234322
59,153.808594,37.109375,25.878906,58.105469,528.808594,0.238229
60,43.457031,33.691406,26.367188,7.324219,68.359375,0.237179
61,-98.144531,39.550781,37.597656,-34.179688,-420.898438,0.241085
62,-82.519531,41.503906,33.203125,-12.207031,-228.515625,0.244991
63,76.171875,23.925781,31.738281,61.035156,375.976562,0.248898
64,175.781250,17.578125,40.527344,96.191406,562.988281,0.252804
65,84.472656,40.039062,36.132812,40.527344,71.289062,0.256710
66,-82.031250,46.875000,32.226562,-31.250000,-415.527344,0.260616
67,-97.656250,40.039062,30.761719,-22.949219,-241.699219,0.264523
68,46.875000,47.851562,28.320312,40.527344,286.132812,0.268429
69,157.226562,55.664062,21.972656,59.082031,541.015625,0.272335
70,83.007812,54.687500,15.625000,10.253906,180.175781,0.276241
71,-70.312500,61.035156,22.949219,-36.621094,-361.328125,0.280148
72,-86.914062,69.335938,28.808594,-16.113281,-326.171875,0.295251
73,35.644531,64.941406,20.019531,37.597656,226.562500,0.299157
74,148.437500,60.546875,18.066406,51.269531,600.097656,0.303063
75,87.402344,61.035156,20.996094,-1.464844,286.132812,0.306970
76,-67.871094,70.312500,28.320312,-47.851562,-298.828125,0.310876
77,-98.632812,65.917969,28.320312,-31.738281,-380.859375,0.314782
78,17.089844,49.804688,19.531250,25.390625,125.000000,0.318688
79,160.644531,50.781250,20.996094,63.964844,529.296875,0.322595
80,116.699219,51.269531,16.113281,17.578125,265.136719,0.326501
81,-43.945312,53.710938,20.996094,-37.597656,-288.085938,0.330407
82,-105.468750,57.617188,29.785156,-28.808594,-455.078125,0.334313
83,-10.253906,54.199219,25.878906,25.878906,32.714844,0.338220
84,135.742188,43.945312,22.949219,66.406250,562.988281,0.335381
85,116.699219,40.527344,23.437500,31.738281,360.351562,0.339287
86,-30.273438,42.968750,27.343750,-30.761719,-231.445312,0.343193
87,-109.863281,40.039062,27.832031,-40.039062,-484.375000,0.347100
88,-25.878906,45.410156,27.832031,11.718750,-73.730469,0.351006
89,130.371094,50.781250,22.460938,59.082031,479.980469,0.354912
90,132.812500,45.898438,19.042969,31.738281,352.539062,0.358818
91,-8.300781,44.921875,27.343750,-25.878906,-208.496094,0.362725
92,-109.863281,49.804688,30.273438,-41.992188,-483.886719,0.366631
93,-37.597656,52.734375,29.785156,6.347656,-114.257812,0.370537
94,125.976562,45.898438,26.367188,59.570312,426.269531,0.374443
95,145.019531,43.457031,26.855469,41.992188,397.460938,0.378350
96,10.253906,45.410156,26.367188,-16.113281,-105.468750,0.375267
97,-113.281250,41.992188,26.367188,-45.410156,-497.070312,0.379173
98,-73.242188,28.320312,21.972656,-12.207031,-244.628906,0.383079
99,89.355469,26.367188,20.507812,53.710938,393.554688,0.386986
100,146.484375,36.132812,31.250000,62.988281,478.515625,0.390892
101,34.667969,38.574219,34.179688,10.742188,-69.335938,0.394798
102,-102.050781,38.574219,29.296875,-30.273438,-498.046875,0.398704
103,-78.125000,32.714844,21.972656,3.417969,-221.679688,0.402611
104,78.613281,27.832031,20.996094,66.406250,337.890625,0.406517
105,146.972656,36.621094,24.414062,65.917969,468.261719,0.410423
106,45.410156,37.109375,28.808594,9.277344,45.898438,0.414329
107,-98.144531,32.714844,38.085938,-32.714844,-418.457031,0.418236
108,-89.355469,34.179688,33.691406,-10.742188,-270.507812,0.417123
109,55.175781,33.203125,21.972656,42.968750,246.093750,0.421029
110,140.136719,29.296875,16.601562,52.734375,527.832031,0.424935
111,55.664062,26.855469,19.531250,0.488281,161.132812,0.428842
112,-85.937500,39.062500,28.808594,-41.503906,-409.179688,0.432748
113,-90.332031,42.968750,30.273438,-14.648438,-364.746094,0.436654
114,40.039062,35.156250,28.808594,40.039062,151.855469,0.440560
115,155.761719,39.550781,31.250000,59.082031,475.585938,0.444467
116,95.703125,44.921875,30.761719,16.601562,155.273438,0.448373
117,-62.011719,43.457031,29.296875,-39.550781,-379.394531,0.452279
118,-94.238281,41.015625,30.273438,-27.343750,-396.972656,0.456185
119,15.625000,31.250000,23.437500,26.855469,96.191406,0.460092
120,137.695312,24.902344,17.089844,56.640625,507.324219,0.475251
121,102.050781,33.691406,23.437500,20.996094,241.699219,0.479158
122,-49.804688,34.667969,31.250000,-33.691406,-308.105469,0.483064
123,-106.445312,28.808594,30.273438,-28.808594,-409.179688,0.486970
124,-7.812500,27.832031,23.925781,16.601562,39.062500,0.490876
125,133.300781,22.460938,22.949219,57.617188,484.863281,0.494783
126,114.257812,19.531250,26.367188,31.250000,290.527344,0.498689
127,-31.250000,31.250000,31.738281,-22.460938,-273.925781,0.502595
128,-105.957031,30.273438,33.203125,-24.414062,-444.824219,0.506501
129,-23.437500,17.578125,27.343750,23.437500,-10.742188,0.510408
130,121.582031,13.183594,21.972656,68.359375,449.707031,0.514314
131,120.117188,15.136719,21.972656,45.898438,307.617188,0.518220
132,-14.648438,33.203125,25.390625,-9.765625,-203.125000,0.515936
133,-111.328125,30.273438,27.832031,-28.320312,-472.167969,0.519842
134,-45.410156,17.578125,23.437500,15.136719,-96.679688,0.523749
135,110.351562,21.972656,18.066406,64.453125,466.308594,0.527655
136,133.300781,26.855469,19.531250,43.457031,406.738281,0.531561
137,6.347656,28.320312,24.414062,-13.183594,-157.714844,0.535467
138,-116.699219,25.878906,29.296875,-40.039062,-505.371094,0.539374
139,-64.941406,30.273438,30.273438,1.953125,-166.503906,0.543280
140,90.820312,25.878906,26.855469,56.640625,399.902344,0.547186
141,128.906250,22.949219,28.808594,42.968750,435.058594,0.551092
142,14.648438,22.949219,30.273438,-11.718750,-95.703125,0.554999
143,-116.699219,20.019531,30.273438,-41.015625,-515.625000,0.558905
144,-82.519531,26.855469,32.226562,-1.953125,-253.906250,0.575293
145,74.707031,31.250000,32.714844,58.593750,317.871094,0.579199
146,138.183594,28.808594,31.738281,60.058594,427.734375,0.583105
147,37.597656,20.019531,29.785156,4.394531,-16.601562,0.587011
148,-102.539062,18.066406,35.644531,-33.691406,-455.566406,0.590918
149,-93.750000,21.972656,31.738281,-7.324219,-271.484375,0.594824
150,59.570312,22.460938,17.089844,46.386719,283.203125,0.598730
151,151.855469,19.531250,16.113281,60.546875,473.144531,0.602636
152,61.035156,20.019531,27.832031,14.160156,81.542969,0.606543
153,-90.820312,28.320312,34.667969,-28.808594,-390.625000,0.610449
154,-93.261719,28.808594,37.597656,-1.464844,-263.671875,0.614355
155,42.968750,15.136719,32.714844,48.828125,269.531250,0.618261
156,142.578125,3.417969,21.484375,60.058594,523.437500,0.615540
157,69.335938,9.277344,20.019531,17.089844,162.597656,0.619446
158,-80.078125,18.554688,28.320312,-26.855469,-384.277344,0.623353
159,-93.261719,26.367188,25.878906,-1.464844,-335.937500,0.627259
160,34.667969,30.273438,19.042969,59.570312,184.082031,0.631165
161,158.691406,34.179688,21.484375,88.867188,546.875000,0.635071
162,102.539062,39.550781,26.855469,44.433594,213.378906,0.638978
163,-67.382812,24.414062,28.808594,-20.507812,-343.261719,0.642884
164,-118.652344,8.789062,22.949219,-20.507812,-341.796875,0.646790
165,0.000000,8.300781,20.507812,35.156250,112.304688,0.650696
166,144.042969,10.742188,22.949219,68.847656,483.398438,0.654603
167,112.792969,21.972656,25.878906,32.226562,226.074219,0.658509
168,-46.386719,26.855469,30.761719,-23.925781,-312.011719,0.657149
169,-109.375000,23.925781,30.761719,-24.902344,-415.527344,0.661055
170,0.000000,34.667969,30.761719,35.156250,21.972656,0.664961
171,147.949219,36.132812,28.320312,76.660156,487.304688,0.668867
172,122.070312,20.507812,25.390625,38.085938,300.781250,0.672774
173,-31.738281,20.019531,31.250000,-19.531250,-291.015625,0.676680
174,-115.722656,25.878906,33.691406,-30.273438,-464.843750,0.680586
175,-34.667969,22.460938,29.296875,16.601562,-27.343750,0.684492
176,122.558594,21.484375,29.296875,68.359375,485.351562,0.688399
177,122.070312,28.320312,33.203125,42.968750,368.164062,0.692305
178,-11.230469,45.898438,39.550781,-11.230469,-182.128906,0.696211
179,-111.328125,40.039062,42.480469,-26.367188,-477.539062,0.700117
180,-58.593750,16.601562,36.132812,11.718750,-132.812500,0.715309
181,104.492188,18.066406,31.738281,69.335938,445.800781,0.719215
182,130.859375,22.460938,34.179688,60.546875,426.269531,0.723122
183,3.417969,26.855469,42.480469,6.835938,-102.050781,0.727028
184,-115.234375,26.855469,45.410156,-15.625000,-414.550781,0.730934
185,-64.941406,33.203125,43.457031,26.855469,-139.648438,0.734840
186,90.332031,25.390625,31.738281,74.707031,386.230469,0.738747
187,129.882812,3.417969,26.367188,58.105469,452.148438,0.742653
188,15.625000,2.929688,29.785156,3.906250,-41.992188,0.746559
189,-112.304688,15.136719,33.691406,-22.949219,-479.980469,0.750465
190,-83.984375,18.066406,32.714844,3.906250,-269.531250,0.754372
191,63.476562,10.253906,20.996094,47.363281,310.058594,0.758278
192,145.507812,16.601562,23.925781,57.617188,451.171875,0.756429
193,65.429688,26.367188,32.714844,14.648438,26.367188,0.760335
194,-73.242188,24.414062,35.156250,-29.296875,-406.738281,0.764242
195,-75.195312,14.648438,27.343750,-9.277344,-258.300781,0.768148
196,62.500000,8.300781,17.089844,41.992188,284.667969,0.772054
197,158.691406,17.089844,17.089844,55.664062,488.769531,0.775960
198,78.125000,25.390625,21.484375,11.718750,104.492188,0.779867
199,-69.335938,37.597656,21.972656,-32.714844,-385.253906,0.783773
200,-79.101562,43.945312,5.371094,-9.277344,-310.058594,0.787679
201,53.710938,35.156250,7.324219,60.546875,235.351562,0.791585
202,155.273438,22.949219,27.832031,71.289062,495.117188,0.795492
203,71.777344,16.113281,24.902344,9.765625,133.789062,0.799398
204,-90.820312,18.066406,27.343750,-40.527344,-323.242188,0.795243
205,-125.976562,17.578125,33.203125,-24.902344,-308.105469,0.799150
206,-23.437500,5.371094,30.273438,22.949219,158.691406,0.803056
207,100.097656,2.441406,33.203125,46.386719,520.996094,0.806962
208,68.359375,11.718750,38.574219,16.113281,210.937500,0.810868
209,-85.449219,17.089844,50.781250,-40.039062,-364.746094,0.814775
210,-144.531250,9.277344,53.222656,-42.968750,-425.292969,0.818681
211,-49.804688,0.976562,53.222656,9.765625,52.734375,0.822587
212,91.308594,3.906250,52.246094,49.804688,482.910156,0.826493
213,74.218750,0.488281,49.316406,24.414062,237.304688,0.830400
214,-89.355469,-7.812500,50.781250,-41.992188,-277.832031,0.834306
215,-163.085938,-4.394531,52.246094,-52.246094,-390.136719,0.838212
216,-72.753906,-4.394531,53.710938,4.882812,-11.718750,0.855415
217,64.941406,-10.742188,46.386719,41.015625,434.570312,0.859322
218,63.476562,-21.972656,42.480469,18.066406,296.386719,0.863228
219,-70.312500,-20.507812,49.316406,-31.738281,-220.703125,0.867134
220,-156.738281,-20.507812,45.898438,-46.875000,-432.128906,0.871040
221,-81.542969,-17.578125,44.433594,4.394531,-52.246094,0.874947
222,68.847656,-13.183594,40.527344,50.781250,458.007812,0.878853
223,88.378906,-17.578125,36.132812,28.320312,347.167969,0.882759
224,-33.691406,-14.648438,35.644531,-23.925781,-168.457031,0.886665
225,-137.695312,-5.371094,33.691406,-47.851562,-414.550781,0.890572
226,-81.054688,-12.695312,28.320312,-8.300781,-97.656250,0.894478
227,79.101562,-17.578125,21.972656,53.222656,405.273438,0.898384
228,119.628906,-5.371094,20.996094,47.363281,416.503906,0.897226
229,1.953125,0.976562,23.925781,-6.347656,-89.355469,0.901132
230,-112.304688,15.136719,29.785156,-32.226562,-457.031250,0.905038
231,-70.800781,21.484375,27.343750,0.488281,-181.152344,0.908944
232,77.148438,9.765625,19.531250,49.316406,353.515625,0.912851
233,134.765625,12.207031,19.042969,49.316406,431.640625,0.916757
234,39.062500,14.648438,22.949219,1.953125,-26.855469,0.920663
235,-98.632812,10.742188,26.367188,-33.691406,-420.898438,0.924569
236,-90.820312,5.371094,20.507812,-11.718750,-199.707031,0.928476
237,58.593750,6.835938,17.089844,43.945312,339.843750,0.932382
238,144.531250,11.230469,18.554688,57.617188,486.816406,0.936288
239,57.617188,8.300781,20.996094,12.695312,35.644531,0.940194
240,-84.960938,9.277344,31.738281,-23.925781,-420.898438,0.935381
241,-88.378906,8.789062,32.714844,1.464844,-254.882812,0.939288
242,46.386719,2.441406,25.390625,57.617188,270.019531,0.943194
243,149.902344,8.300781,24.902344,76.171875,500.488281,0.947100
244,73.242188,11.230469,28.808594,28.808594,89.355469,0.951006
245,-80.078125,10.253906,34.667969,-20.996094,-428.222656,0.954913
246,-96.191406,17.578125,34.667969,-3.906250,-342.285156,0.958819
247,34.179688,20.507812,29.296875,53.222656,172.363281,0.962725
248,154.785156,20.019531,28.320312,77.636719,469.726562,0.966631
249,95.703125,24.414062,27.343750,35.156250,146.484375,0.970538
250,-55.664062,22.949219,32.714844,-17.578125,-329.101562,0.974444
251,-90.820312,18.066406,33.691406,-10.742188,-349.609375,0.978350
252,12.207031,14.160156,22.949219,40.527344,99.121094,0.995305
253,143.066406,8.789062,18.554688,71.289062,494.140625,0.999211
254,120.117188,17.578125,23.925781,37.597656,230.957031,1.003118
255,-33.691406,27.343750,32.226562,-8.789062,-310.546875,1.007024
256,-98.144531,31.738281,35.644531,-6.347656,-411.132812,1.010930
257,1.953125,34.179688,33.203125,41.015625,22.949219,1.014836
258,139.160156,27.832031,24.414062,70.800781,467.285156,1.018743
259,114.257812,15.136719,16.113281,28.808594,290.039062,1.022649
260,-32.714844,14.160156,19.531250,-27.343750,-246.582031,1.026555
261,-106.933594,22.460938,30.761719,-26.367188,-432.128906,1.030461
262,-24.902344,21.972656,22.460938,20.996094,-0.976562,1.034368
263,120.117188,17.089844,10.253906,57.128906,495.117188,1.038274
264,124.511719,24.414062,18.066406,38.574219,343.750000,1.035164
265,-12.207031,27.343750,24.414062,-11.230469,-178.710938,1.039071
266,-110.839844,22.460938,25.390625,-27.343750,-426.269531,1.042977
267,-41.503906,24.902344,26.855469,26.367188,-93.750000,1.046883
268,108.398438,19.531250,21.972656,77.636719,418.457031,1.050789
269,131.347656,13.183594,20.019531,52.734375,379.882812,1.054696
270,6.347656,15.136719,23.925781,0.976562,-132.812500,1.058602
271,-102.539062,26.855469,28.320312,-16.601562,-449.218750,1.062508
272,-52.246094,30.761719,23.437500,21.484375,-103.515625,1.066414
273,96.191406,17.089844,15.136719,65.429688,424.316406,1.070321
274,143.554688,15.625000,15.625000,53.710938,419.433594,1.074227
275,30.761719,13.183594,19.531250,4.882812,-46.386719,1.078133
276,-97.656250,12.695312,27.343750,-23.437500,-427.734375,1.075372
277,-68.359375,23.925781,31.250000,14.160156,-192.871094,1.079278
278,76.660156,19.042969,24.414062,72.265625,364.257812,1.083184
279,144.042969,12.207031,21.972656,71.289062,489.257812,1.087091
280,51.269531,11.718750,26.367188,19.042969,24.414062,1.090997
281,-91.796875,9.277344,27.832031,-23.437500,-432.617188,1.094903
282,-88.378906,9.277344,25.878906,-3.906250,-235.351562,1.098809
283,66.894531,17.089844,25.878906,62.500000,302.246094,1.102716
284,154.296875,21.972656,24.414062,74.707031,466.308594,1.106622
285,60.546875,25.878906,25.390625,12.207031,63.964844,1.110528
286,-83.496094,35.156250,32.714844,-36.132812,-369.140625,1.114434
287,-104.492188,30.273438,25.878906,-26.855469,-272.949219,1.118341
288,22.460938,23.437500,22.949219,28.808594,172.363281,1.135256
289,131.835938,18.554688,18.554688,51.757812,455.078125,1.139162
290,61.035156,12.207031,16.601562,3.906250,124.023438,1.143069
291,-85.449219,20.507812,24.902344,-34.179688,-373.046875,1.146975
292,-103.515625,31.738281,26.367188,-8.789062,-339.355469,1.150881
293,15.136719,24.902344,22.460938,50.292969,135.742188,1.154787
294,137.695312,22.949219,19.531250,82.519531,480.468750,1.158694
295,97.167969,28.320312,19.042969,48.828125,177.246094,1.162600
296,-57.617188,18.554688,18.066406,-6.835938,-331.054688,1.166506
297,-106.933594,9.277344,16.601562,-8.300781,-392.578125,1.170412
298,-1.953125,10.253906,14.648438,40.039062,60.546875,1.174319
299,142.089844,22.949219,12.695312,79.101562,486.328125,1.178225
300,119.628906,28.320312,12.207031,46.875000,250.976562,1.176133
301,-32.714844,20.507812,17.578125,-8.789062,-292.968750,1.180039
302,-107.421875,16.113281,17.089844,-16.601562,-415.527344,1.183946
303,-17.089844,25.390625,20.019531,33.691406,43.457031,1.187852
304,129.394531,25.390625,19.042969,76.171875,498.535156,1.191758
305,114.746094,8.300781,11.230469,43.945312,296.386719,1.195664
306,-16.601562,19.042969,18.066406,-2.441406,-226.074219,1.199571
307,-99.121094,28.320312,22.949219,-12.695312,-383.789062,1.203477
308,-36.132812,15.625000,16.113281,25.878906,-7.812500,1.207383
309,117.675781,18.066406,15.136719,73.730469,453.125000,1.211289
310,129.882812,25.390625,16.113281,51.757812,360.351562,1.215196
311,8.300781,33.203125,22.949219,5.859375,-157.714844,1.219102
312,-93.750000,38.574219,27.343750,-15.625000,-435.058594,1.216054
313,-47.363281,28.808594,22.949219,21.484375,-81.542969,1.219960
314,106.445312,20.996094,21.972656,78.613281,430.175781,1.223866
315,141.113281,15.625000,25.390625,65.429688,409.179688,1.227772
316,24.902344,14.160156,27.343750,8.300781,-75.683594,1.231679
317,-100.585938,16.113281,31.738281,-27.832031,-444.335938,1.235585
318,-73.242188,8.789062,25.390625,0.976562,-145.996094,1.239491
319,80.078125,6.347656,17.089844,54.199219,419.433594,1.243397
320,145.507812,15.625000,21.484375,50.292969,457.519531,1.247304
321,37.109375,16.601562,20.996094,-2.441406,-20.507812,1.251210
322,-99.121094,16.601562,25.878906,-34.179688,-423.828125,1.255116
323,-71.289062,17.089844,29.296875,0.000000,-201.660156,1.259022
324,77.148438,15.625000,20.019531,58.593750,320.312500,1.275261
325,155.273438,25.390625,15.625000,66.894531,460.449219,1.279167
326,69.824219,31.738281,19.531250,17.578125,9.277344,1.283073
327,-76.171875,24.414062,27.832031,-19.042969,-468.750000,1.286980
328,-85.449219,11.718750,23.925781,1.464844,-298.339844,1.290886
329,53.710938,18.554688,23.437500,60.058594,250.488281,1.294792
330,150.878906,29.296875,29.785156,77.148438,452.636719,1.298698
331,63.964844,22.460938,26.367188,20.019531,67.871094,1.302605
332,-88.867188,22.949219,27.832031,-33.691406,-408.691406,1.306511
333,-113.281250,21.484375,25.878906,-26.855469,-348.144531,1.310417
334,3.417969,20.996094,21.484375,22.460938,175.781250,1.314323
335,119.140625,20.019531,20.507812,41.503906,493.164062,1.318230
336,62.988281,20.507812,21.484375,-5.859375,148.925781,1.315365
337,-91.796875,24.902344,23.437500,-56.640625,-356.933594,1.319271
338,-127.929688,25.390625,23.437500,-45.410156,-334.960938,1.323177
339,-0.488281,31.250000,26.367188,15.625000,152.343750,1.327084
340,138.671875,33.691406,24.414062,52.734375,526.855469,1.330990
341,104.980469,31.250000,29.785156,27.343750,238.769531,1.334896
342,-43.457031,23.925781,35.156250,-18.066406,-302.734375,1.338802
343,-99.609375,19.042969,31.250000,-22.460938,-376.953125,1.342709
344,-0.488281,15.625000,24.414062,28.320312,87.402344,1.346615
345,149.414062,20.507812,26.855469,72.265625,528.320312,1.350521
346,134.277344,28.808594,30.761719,48.828125,301.269531,1.354427
347,-18.066406,25.878906,28.808594,-1.464844,-274.902344,1.358334
348,-91.796875,20.996094,35.644531,-7.812500,-418.945312,1.357125
349,-18.066406,14.160156,30.273438,37.597656,14.160156,1.361031
350,124.511719,11.718750,23.437500,74.707031,453.613281,1.364937
351,126.953125,13.671875,25.878906,50.781250,288.574219,1.368843
352,-12.207031,18.554688,32.714844,-2.929688,-230.468750,1.372750
353,-100.097656,21.484375,39.062500,-12.695312,-447.265625,1.376656
354,-27.832031,31.250000,34.667969,33.203125,-87.890625,1.380562
355,105.468750,42.480469,25.390625,57.617188,406.250000,1.384468
356,110.351562,33.203125,19.531250,20.996094,357.421875,1.388375
357,-23.925781,18.554688,14.648438,-42.480469,-123.535156,1.392281
358,-137.695312,18.554688,20.019531,-72.753906,-403.320312,1.396187
359,-80.566406,23.437500,20.996094,-29.785156,-96.191406,1.400093
360,77.148438,29.296875,16.601562,27.343750,402.832031,1.415198
361,122.558594,26.855469,18.066406,18.554688,435.058594,1.419104
362,18.554688,19.531250,20.019531,-33.691406,-73.730469,1.423010
363,-98.144531,23.437500,25.878906,-55.175781,-476.074219,1.426917
364,-64.941406,22.460938,27.343750,-6.835938,-174.316406,1.430823
365,90.332031,23.437500,24.902344,59.082031,392.089844,1.434729
366,158.203125,17.089844,20.019531,54.687500,447.265625,1.438635
367,60.058594,11.718750,20.507812,5.859375,3.906250,1.442542
368,-76.171875,17.578125,30.273438,-19.042969,-424.804688,1.446448
369,-62.500000,20.019531,34.667969,13.671875,-269.042969,1.450354
370,81.542969,15.136719,28.320312,71.777344,281.250000,1.454260
371,161.132812,12.695312,23.925781,82.519531,495.117188,1.458167
372,78.125000,19.042969,28.320312,34.667969,96.191406,1.455256
373,-71.777344,19.042969,32.226562,-9.765625,-378.906250,1.459162
374,-95.214844,17.578125,30.273438,7.812500,-258.789062,1.463069
375,33.203125,14.648438,25.390625,54.199219,271.972656,1.466975
376,137.207031,15.136719,22.949219,66.406250,545.410156,1.470881
377,69.335938,25.390625,21.484375,17.578125,153.320312,1.474787
378,-84.472656,28.808594,22.460938,-42.968750,-357.421875,1.478694
379,-115.722656,26.367188,24.414062,-38.574219,-291.015625,1.482600
380,0.488281,20.019531,20.507812,11.718750,207.519531,1.486506
381,117.187500,17.578125,23.925781,30.761719,509.765625,1.490412
382,69.824219,21.484375,25.878906,-10.742188,184.082031,1.494319
383,-79.101562,18.554688,27.832031,-54.687500,-337.402344,1.498225
384,-124.511719,10.253906,30.273438,-44.433594,-375.976562,1.495310
385,-11.230469,20.507812,31.738281,16.113281,116.699219,1.499216
386,125.000000,32.714844,29.785156,61.523438,496.582031,1.503123
387,94.726562,23.437500,27.832031,31.738281,236.328125,1.507029
388,-43.457031,21.484375,36.132812,-12.695312,-305.175781,1.510935
389,-97.656250,32.226562,39.550781,-8.300781,-437.500000,1.514841
390,-4.394531,30.273438,30.273438,37.597656,18.066406,1.518748
391,136.230469,23.437500,21.972656,77.148438,464.355469,1.522654
392,135.742188,30.273438,24.902344,49.804688,286.621094,1.526560
393,3.906250,42.480469,32.226562,-3.417969,-207.031250,1.530466
394,-90.332031,38.574219,29.785156,-18.066406,-403.320312,1.534373
395,-26.855469,31.738281,19.042969,19.531250,-49.804688,1.538279
396,120.117188,22.460938,10.742188,58.105469,428.710938,1.555290
397,126.464844,19.531250,12.207031,36.132812,333.984375,1.559196
398,-13.671875,23.925781,16.601562,-14.648438,-188.964844,1.563102
399,-120.605469,17.089844,20.019531,-31.250000,-441.894531,1.567009
400,-66.406250,15.136719,20.996094,6.347656,-79.101562,1.570915
401,83.984375,22.460938,22.460938,52.734375,427.734375,1.574821
402,105.957031,19.531250,18.066406,36.621094,379.882812,1.578727
403,-18.066406,22.460938,19.531250,-17.578125,-96.679688,1.582634
404,-128.906250,22.460938,27.832031,-41.503906,-448.242188,1.586540
405,-94.726562,6.835938,23.925781,-7.812500,-184.570312,1.590446
406,60.058594,4.882812,21.484375,45.898438,400.878906,1.594352
407,116.699219,13.183594,23.437500,43.457031,445.800781,1.598259
408,14.160156,22.949219,31.250000,-1.953125,-73.242188,1.616385
409,-114.257812,19.531250,28.320312,-37.597656,-464.843750,1.620291
410,-87.890625,22.949219,17.089844,-12.207031,-228.515625,1.624197
411,55.664062,17.578125,15.625000,42.480469,292.968750,1.628104
412,124.023438,8.300781,12.695312,50.781250,440.917969,1.632010
413,39.062500,12.695312,15.136719,2.441406,11.718750,1.635916
414,-97.656250,15.136719,30.273438,-33.203125,-479.003906,1.639822
415,-95.214844,21.972656,27.343750,-5.859375,-296.875000,1.643729
416,47.363281,30.273438,18.554688,47.851562,263.671875,1.647635
417,140.136719,25.390625,16.601562,51.757812,462.890625,1.651541
418,59.570312,16.113281,17.578125,0.488281,93.750000,1.655447
419,-91.796875,12.207031,21.972656,-36.132812,-405.761719,1.659354
420,-108.398438,19.531250,22.949219,-12.207031,-293.945312,1.650129
421,20.996094,21.972656,23.437500,42.480469,224.609375,1.654035
422,128.906250,22.460938,20.996094,62.011719,500.000000,1.657941
423,73.242188,25.390625,23.437500,23.925781,174.804688,1.661847
424,-76.171875,29.296875,32.226562,-22.949219,-357.910156,1.665754
425,-115.234375,23.437500,31.250000,-12.207031,-393.066406,1.669660
426,-5.371094,12.207031,24.902344,43.945312,135.742188,1.673566
427,121.582031,14.160156,29.785156,72.265625,477.050781,1.677472
428,84.960938,20.019531,28.808594,30.761719,115.234375,1.681379
429,-59.570312,23.437500,27.832031,-21.484375,-358.398438,1.685285
430,-105.957031,24.902344,32.714844,-16.113281,-383.300781,1.689191
431,0.000000,28.320312,27.343750,34.179688,37.597656,1.693097
432,140.625000,27.832031,17.089844,64.453125,470.214844,1.711650
433,121.093750,29.785156,22.460938,31.250000,254.882812,1.715556
434,-18.554688,41.015625,29.785156,-17.578125,-272.949219,1.719462
435,-91.308594,38.085938,29.296875,-23.925781,-427.734375,1.723368
436,-5.859375,28.320312,24.902344,22.460938,-43.457031,1.727275
437,145.019531,33.203125,19.531250,68.847656,431.152344,1.731181
438,144.042969,34.179688,21.484375,41.015625,311.523438,1.735087
439,-1.953125,29.785156,27.343750,-15.625000,-225.097656,1.738993
440,-100.585938,38.085938,33.203125,-22.949219,-459.472656,1.742900
441,-34.179688,40.039062,28.808594,18.066406,-64.453125,1.746806
442,115.234375,26.855469,26.367188,57.128906,403.320312,1.750712
443,127.441406,14.160156,25.390625,35.644531,309.082031,1.754618
444,-6.347656,18.554688,26.855469,-10.253906,-140.625000,1.750751
445,-117.187500,20.996094,31.738281,-25.878906,-414.550781,1.754657
446,-69.335938,12.207031,29.296875,9.765625,-102.539062,1.758563
447,82.031250,13.671875,24.902344,66.894531,417.968750,1.762469
448,116.210938,5.371094,21.972656,56.152344,435.546875,1.766376
449,6.835938,4.882812,28.808594,4.882812,-38.574219,1.770282
450,-117.187500,15.136719,35.156250,-24.902344,-433.105469,1.774188
451,-84.960938,18.554688,34.667969,7.324219,-192.382812,1.778094
452,78.125000,14.648438,30.761719,61.035156,355.468750,1.782001
453,145.507812,17.089844,25.390625,55.175781,425.781250,1.785907
454,50.292969,30.761719,25.390625,4.394531,-41.503906,1.789813
455,-84.960938,33.203125,28.808594,-35.644531,-451.171875,1.793719
456,-77.636719,21.484375,24.414062,-12.695312,-216.308594,1.792252
457,71.289062,14.648438,20.019531,41.503906,358.886719,1.796159
458,151.367188,21.972656,19.531250,46.875000,455.566406,1.800065
459,65.429688,26.367188,21.484375,0.976562,2.441406,1.803971
460,-72.753906,24.902344,27.832031,-41.992188,-435.058594,1.807877
461,-81.054688,27.832031,26.367188,-24.902344,-269.531250,1.811784
462,47.363281,20.019531,18.066406,24.902344,241.210938,1.815690
463,146.484375,18.066406,18.066406,41.015625,452.148438,1.819596
464,78.125000,27.343750,21.484375,4.882812,69.335938,1.823502
465,-73.730469,27.343750,27.343750,-31.250000,-419.433594,1.827409
466,-103.515625,19.531250,33.691406,-8.300781,-293.945312,1.831315
467,15.625000,11.718750,30.273438,46.386719,217.773438,1.835221
468,129.394531,8.789062,22.460938,62.988281,547.851562,1.860252
469,76.660156,13.183594,30.761719,24.414062,241.699219,1.864158
470,-80.566406,10.742188,33.691406,-22.949219,-306.640625,1.868064
471,-124.511719,7.324219,32.714844,-18.066406,-357.910156,1.871970
472,-15.625000,13.183594,33.691406,33.203125,113.281250,1.875877
473,117.675781,24.902344,34.667969,66.894531,502.441406,1.879783
474,85.449219,31.738281,31.738281,25.878906,222.167969,1.883689
475,-63.476562,27.343750,26.855469,-29.785156,-321.289062,1.887595
476,-121.582031,15.625000,25.390625,-28.808594,-406.250000,1.891502
477,-27.832031,14.160156,19.531250,13.671875,55.664062,1.895408
478,124.023438,20.019531,16.113281,53.222656,469.238281,1.899314
479,125.976562,31.250000,24.414062,32.714844,281.250000,1.903220
480,-12.207031,42.968750,33.691406,-19.531250,-205.078125,1.886020
481,-92.773438,33.203125,28.808594,-28.320312,-435.058594,1.889927
482,-9.765625,18.066406,15.136719,20.019531,-72.265625,1.893833
483,145.996094,18.066406,8.300781,72.265625,430.175781,1.897739
484,134.277344,26.367188,17.089844,36.132812,299.316406,1.901645
485,-13.671875,28.320312,25.390625,-28.808594,-239.746094,1.905552
486,-108.886719,22.460938,27.832031,-33.203125,-453.613281,1.909458
487,-52.734375,20.507812,26.367188,11.718750,-80.078125,1.913364
488,97.656250,18.554688,23.925781,60.546875,401.855469,1.917270
489,120.117188,21.484375,28.320312,43.457031,347.656250,1.921177
490,-7.324219,27.832031,31.738281,-15.625000,-115.234375,1.925083
491,-128.906250,12.207031,25.878906,-50.781250,-428.222656,1.928989
492,-87.890625,9.277344,22.949219,-17.089844,-144.042969,1.947762
493,60.546875,11.230469,19.042969,35.156250,393.554688,1.951669
494,105.957031,7.812500,17.578125,29.785156,442.871094,1.955575
495,6.835938,20.996094,23.437500,-11.718750,-16.113281,1.959481
496,-122.070312,17.578125,27.343750,-42.480469,-442.382812,1.963387
497,-100.585938,14.160156,33.203125,-5.859375,-211.425781,1.967294
498,48.828125,11.718750,24.414062,50.292969,378.906250,1.971200
499,124.023438,12.695312,23.437500,49.316406,451.660156,1.975106
500,33.691406,17.578125,33.203125,3.417969,2.929688,1.979012
501,-97.167969,18.066406,38.085938,-22.949219,-403.320312,1.982919
502,-80.078125,20.507812,34.667969,7.324219,-255.859375,1.986825
503,67.382812,22.949219,35.156250,64.941406,275.390625,1.990731
504,160.644531,30.273438,36.621094,76.171875,484.375000,1.987085
505,70.800781,17.578125,31.738281,22.460938,65.429688,1.990991
506,-83.496094,0.976562,31.738281,-24.902344,-432.617188,1.994897
507,-87.402344,10.742188,35.156250,-3.906250,-285.156250,1.998803
508,43.457031,16.601562,30.273438,48.828125,275.878906,2.002710
509,146.972656,18.554688,25.390625,67.871094,503.906250,2.006616
510,89.843750,23.925781,26.367188,25.878906,98.144531,2.010522
511,-54.199219,31.738281,34.179688,-19.531250,-429.687500,2.014428
512,-89.843750,34.667969,33.203125,-5.859375,-366.210938,2.018335
513,14.160156,15.136719,23.437500,35.156250,181.152344,2.022241
514,138.183594,7.812500,26.367188,60.546875,523.925781,2.026147
515,89.355469,12.207031,25.390625,25.878906,181.152344,2.030053
516,-63.476562,9.277344,25.878906,-23.437500,-342.773438,2.029236
517,-108.886719,13.183594,31.738281,-14.648438,-396.972656,2.033142
518,-3.906250,26.367188,31.250000,43.945312,83.984375,2.037048
519,137.207031,28.808594,28.808594,79.101562,523.437500,2.040954
520,112.792969,20.019531,27.832031,42.480469,276.367188,2.044861
521,-49.316406,11.230469,29.785156,-14.648438,-284.179688,2.048767
522,-127.441406,6.835938,31.250000,-22.460938,-411.132812,2.052673
523,-32.714844,6.835938,26.855469,25.878906,60.058594,2.056579
524,115.722656,8.300781,23.437500,67.382812,509.765625,2.060486
525,112.792969,13.183594,21.484375,38.574219,288.085938,2.064392
526,-18.554688,24.902344,28.320312,-15.625000,-253.906250,2.068298
527,-107.910156,26.367188,28.808594,-29.296875,-421.875000,2.072204
528,-37.597656,17.089844,22.460938,13.671875,-5.371094,2.094056
529,109.863281,7.812500,19.042969,55.175781,497.070312,2.097963
530,110.839844,7.812500,10.742188,24.414062,410.644531,2.101869
531,-6.835938,21.972656,20.507812,-24.414062,-102.539062,2.105775
532,-100.585938,28.808594,32.714844,-34.179688,-397.460938,2.109681
533,-54.687500,23.437500,22.460938,0.000000,-102.539062,2.113588
534,91.308594,14.648438,15.625000,44.433594,430.664062,2.117494
535,126.953125,16.601562,18.066406,30.761719,403.808594,2.121400
536,13.183594,24.902344,24.414062,-17.089844,-125.976562,2.125306
537,-109.375000,28.808594,31.250000,-34.667969,-458.984375,2.129213
538,-75.195312,25.878906,23.437500,-0.976562,-157.714844,2.133119
539,80.078125,14.160156,16.601562,49.316406,391.601562,2.137025
540,141.113281,17.578125,20.507812,50.781250,425.781250,2.127191
541,40.039062,25.878906,28.808594,2.441406,-30.761719,2.131097
542,-88.867188,28.808594,33.203125,-30.273438,-434.570312,2.135003
543,-71.289062,33.203125,30.761719,-1.953125,-243.164062,2.138909
544,64.453125,14.648438,20.507812,47.363281,308.593750,2.142816
545,137.207031,12.207031,23.437500,59.082031,461.914062,2.146722
546,59.570312,39.062500,33.203125,20.996094,24.414062,2.150628
547,-78.125000,36.132812,37.597656,-17.578125,-455.078125,2.154534
548,-91.796875,20.019531,32.714844,-2.929688,-276.855469,2.158441
549,36.621094,20.019531,20.019531,44.433594,295.410156,2.162347
550,131.347656,18.554688,19.531250,52.734375,542.480469,2.166253
551,63.964844,23.437500,30.761719,15.136719,177.734375,2.170159
552,-83.496094,21.972656,30.273438,-23.925781,-343.750000,2.168251
553,-108.398438,17.578125,23.437500,-18.066406,-285.156250,2.172157
554,22.949219,23.925781,22.460938,37.109375,208.007812,2.176063
555,144.531250,28.808594,22.949219,70.800781,493.652344,2.179970
556,89.355469,26.367188,24.414062,28.808594,158.691406,2.183876
557,-59.082031,26.855469,29.785156,-24.902344,-358.886719,2.187782
558,-107.910156,23.437500,23.437500,-27.832031,-335.937500,2.191688
559,-8.300781,19.042969,15.136719,17.089844,138.671875,2.195595
560,138.183594,37.597656,20.996094,63.476562,491.210938,2.199501
561,98.144531,37.109375,18.554688,19.042969,206.542969,2.203407
562,-60.546875,25.878906,16.113281,-42.968750,-334.960938,2.207313
563,-105.468750,20.507812,22.460938,-29.785156,-425.781250,2.211220
564,-8.300781,18.066406,22.460938,20.019531,36.132812,2.232135
565,125.488281,21.972656,12.695312,53.222656,506.347656,2.236041
566,101.074219,17.578125,8.789062,21.972656,310.546875,2.239948
567,-41.503906,28.808594,23.925781,-26.855469,-219.238281,2.243854
568,-119.140625,31.250000,30.273438,-32.714844,-402.832031,2.247760
569,-50.781250,6.347656,15.625000,3.417969,-17.578125,2.251666
570,98.144531,12.695312,12.695312,48.339844,458.007812,2.255573
571,102.539062,29.785156,20.507812,28.320312,272.949219,2.259479
572,-29.296875,26.855469,23.925781,-28.320312,-256.835938,2.263385
573,-122.558594,40.039062,26.855469,-44.433594,-458.007812,2.267291
574,-53.710938,41.503906,28.320312,5.859375,-92.285156,2.271198
575,98.632812,2.929688,20.019531,49.316406,415.039062,2.275104
576,98.144531,6.835938,3.417969,6.347656,331.542969,2.272746
577,-19.531250,37.109375,14.648438,-38.085938,-168.945312,2.276652
578,-102.539062,31.738281,33.691406,-38.085938,-484.375000,2.280559
579,-71.289062,31.250000,13.671875,-20.507812,-183.105469,2.284465
580,82.031250,39.550781,12.695312,38.574219,351.562500,2.288371
581,149.902344,27.343750,29.296875,54.199219,362.792969,2.292277
582,31.738281,12.695312,25.390625,-8.300781,-90.820312,2.296184
583,-100.097656,23.925781,22.949219,-45.410156,-450.195312,2.300090
584,-73.730469,28.320312,21.972656,-9.277344,-224.121094,2.303996
585,74.218750,29.296875,17.089844,51.269531,293.457031,2.307902
586,135.742188,39.062500,14.648438,45.410156,398.437500,2.311809
587,39.062500,28.320312,20.996094,-6.347656,-68.359375,2.315715
588,-104.980469,35.156250,22.460938,-40.039062,-481.445312,2.309970
589,-109.863281,54.687500,13.671875,-25.390625,-251.464844,2.313876
590,46.386719,38.085938,21.972656,38.574219,314.453125,2.317783
591,148.925781,22.460938,30.273438,66.406250,516.601562,2.321689
592,51.757812,21.484375,18.066406,6.347656,128.417969,2.325595
593,-105.957031,23.925781,20.996094,-44.921875,-364.746094,2.329501
594,-103.515625,40.039062,29.296875,-10.742188,-279.785156,2.333408
595,26.855469,33.203125,18.066406,40.527344,258.300781,2.337314
596,123.535156,26.367188,13.671875,46.386719,499.023438,2.341220
597,46.875000,46.875000,10.253906,-14.648438,139.160156,2.345126
598,-89.355469,56.640625,21.484375,-50.292969,-352.050781,2.349033
599,-98.144531,36.621094,36.132812,-18.066406,-319.824219,2.352939
600,4.394531,34.667969,23.437500,16.601562,170.410156,2.367959
601,115.722656,38.574219,13.671875,35.156250,502.929688,2.371865
602,72.265625,38.085938,22.949219,-0.976562,171.386719,2.375772
603,-83.496094,45.898438,25.878906,-56.640625,-388.671875,2.379678
604,-128.417969,50.292969,25.390625,-50.292969,-426.269531,2.383584
605,-24.414062,61.035156,31.250000,9.765625,70.800781,2.387490
606,105.468750,51.269531,25.878906,41.503906,498.046875,2.391397
607,96.191406,38.085938,28.320312,11.230469,233.886719,2.395303
608,-70.800781,42.968750,27.832031,-52.246094,-307.128906,2.399209
609,-151.855469,35.644531,27.343750,-61.035156,-437.988281,2.403115
610,-52.246094,41.992188,30.761719,-2.929688,15.625000,2.407022
611,103.027344,49.316406,29.785156,43.945312,492.187500,2.410928
612,106.933594,61.523438,25.390625,16.601562,285.156250,2.412988
613,-42.968750,53.710938,19.042969,-47.851562,-266.601562,2.416894
614,-126.953125,28.320312,27.343750,-53.222656,-473.144531,2.420800
615,-39.062500,30.761719,29.296875,4.394531,-78.613281,2.424706
616,98.144531,29.296875,13.183594,42.968750,433.593750,2.428613
617,105.957031,29.296875,19.531250,29.785156,337.890625,2.432519
618,-17.089844,34.179688,34.179688,-11.230469,-167.968750,2.436425
619,-127.441406,30.761719,31.738281,-36.132812,-443.359375,2.440331
620,-72.265625,29.785156,24.902344,4.394531,-98.632812,2.444238
621,86.425781,40.039062,19.531250,55.664062,458.007812,2.448144
622,125.000000,37.597656,25.390625,44.433594,410.156250,2.452050
623,17.089844,32.226562,34.179688,-0.488281,-155.273438,2.455956
624,-101.562500,38.574219,33.691406,-21.972656,-491.210938,2.452770
625,-66.894531,34.179688,25.878906,9.765625,-194.335938,2.456676
626,76.660156,20.996094,19.042969,58.105469,383.300781,2.460582
627,130.371094,21.972656,15.625000,56.152344,468.261719,2.464489
628,40.527344,38.085938,23.925781,15.625000,-31.738281,2.468395
629,-93.261719,35.644531,27.343750,-21.484375,-447.265625,2.472301
630,-88.378906,26.367188,16.601562,-5.859375,-233.398438,2.476207
631,68.359375,34.667969,16.113281,54.687500,305.175781,2.480114
632,165.039062,35.644531,36.132812,77.636719,434.082031,2.484020
633,75.683594,37.109375,41.503906,34.179688,-13.183594,2.487926
634,-79.101562,36.621094,31.250000,-18.554688,-467.285156,2.491832
635,-87.890625,29.296875,21.972656,-3.906250,-291.992188,2.495739
636,58.105469,28.808594,22.949219,60.058594,302.734375,2.518795
637,159.179688,34.667969,23.925781,80.078125,522.949219,2.522701
638,74.707031,33.691406,17.578125,22.460938,60.058594,2.526607
639,-82.031250,18.554688,18.066406,-36.621094,-424.316406,2.530513
640,-87.402344,26.367188,23.925781,-10.742188,-330.566406,2.534420
641,34.179688,35.644531,17.578125,42.480469,168.945312,2.538326
642,132.812500,28.808594,14.648438,55.175781,507.812500,2.542232
643,88.867188,29.296875,26.367188,22.949219,183.105469,2.546138
644,-57.617188,38.574219,32.226562,-20.019531,-337.890625,2.550045
645,-109.863281,38.085938,25.878906,-20.019531,-364.746094,2.553951
646,-1.464844,20.996094,13.183594,26.367188,118.652344,2.557857
647,137.207031,15.136719,16.113281,69.824219,521.484375,2.561763
648,97.167969,19.531250,19.042969,30.761719,211.914062,2.555053
649,-38.574219,29.296875,27.832031,-16.113281,-348.632812,2.558959
650,-97.167969,20.019531,24.902344,-13.183594,-406.738281,2.562866
651,-6.347656,16.601562,16.601562,33.691406,69.824219,2.566772
652,147.460938,26.855469,18.066406,77.148438,502.929688,2.570678
653,125.976562,18.066406,18.066406,41.503906,279.296875,2.574584
654,-13.183594,24.414062,32.226562,-10.253906,-243.164062,2.578491
655,-77.636719,41.992188,36.132812,-9.277344,-440.429688,2.582397
656,-5.859375,22.949219,19.531250,31.250000,-49.804688,2.586303
657,138.183594,10.742188,18.066406,69.824219,469.238281,2.590209
658,138.183594,26.855469,21.972656,38.574219,322.265625,2.594116
659,-6.835938,29.785156,20.996094,-16.113281,-218.261719,2.598022
660,-97.656250,21.484375,30.761719,-21.484375,-456.542969,2.594250
661,-24.902344,28.320312,37.597656,29.785156,-65.429688,2.598156
662,117.675781,27.832031,25.390625,75.195312,458.984375,2.602062
663,125.000000,13.183594,18.554688,49.804688,357.421875,2.605969
664,-6.347656,11.230469,22.460938,-5.371094,-166.992188,2.609875
665,-115.722656,24.414062,32.226562,-20.019531,-455.566406,2.613781
666,-58.593750,29.296875,36.621094,22.949219,-147.949219,2.617687
667,96.191406,17.089844,26.367188,70.312500,370.117188,2.621594
668,145.507812,19.531250,24.414062,62.500000,368.652344,2.625500
669,30.761719,20.507812,23.437500,6.347656,-110.351562,2.629406
670,-102.050781,11.230469,25.390625,-26.367188,-458.984375,2.633312
671,-64.941406,18.066406,27.343750,9.765625,-197.753906,2.637219
672,83.984375,26.855469,14.648438,54.199219,339.355469,2.648943
673,154.785156,37.109375,16.601562,56.152344,442.382812,2.652849
674,59.570312,34.667969,24.902344,8.300781,9.277344,2.656755
675,-83.496094,22.460938,27.832031,-31.738281,-423.339844,2.660661
676,-78.613281,16.113281,23.437500,-8.300781,-250.000000,2.664568
677,70.312500,16.601562,18.554688,44.921875,281.738281,2.668474
678,160.644531,26.855469,25.878906,58.105469,460.937500,2.672380
679,77.148438,36.621094,32.226562,12.207031,-0.488281,2.676286
680,-67.871094,25.390625,29.296875,-35.644531,-471.191406,2.680193
681,-81.542969,13.183594,23.437500,-14.648438,-293.457031,2.684099
682,45.898438,7.324219,17.578125,41.992188,211.425781,2.688005
683,156.250000,10.742188,21.484375,68.359375,458.984375,2.691911
684,90.332031,24.414062,36.621094,32.226562,120.117188,2.688871
685,-61.523438,34.179688,47.851562,-7.812500,-388.183594,2.692778
686,-104.492188,24.414062,39.550781,-1.464844,-356.933594,2.696684
687,8.300781,18.066406,28.320312,48.339844,170.898438,2.700590
688,135.742188,22.460938,26.367188,85.449219,526.855469,2.704496
689,88.378906,14.160156,27.832031,43.945312,212.402344,2.708403
690,-55.175781,12.695312,33.691406,-13.671875,-359.863281,2.712309
691,-95.214844,23.437500,34.667969,-5.859375,-409.179688,2.716215
692,15.136719,16.113281,28.808594,46.875000,69.824219,2.720121
693,151.367188,3.906250,23.925781,68.847656,458.007812,2.724028
694,121.582031,17.089844,24.902344,27.343750,225.585938,2.727934
695,-34.667969,22.460938,21.484375,-27.343750,-300.781250,2.731840
696,-99.609375,20.996094,25.390625,-28.808594,-421.386719,2.728863
697,-6.835938,30.761719,25.390625,17.089844,14.648438,2.732770
698,128.417969,22.949219,10.253906,52.246094,459.472656,2.736676
699,108.398438,17.089844,11.230469,20.019531,290.527344,2.740582
700,-38.574219,18.554688,20.507812,-32.226562,-228.027344,2.744488
701,-121.582031,25.878906,24.414062,-37.109375,-448.730469,2.748395
702,-48.339844,27.343750,26.367188,13.183594,-58.105469,2.752301
703,100.585938,22.460938,23.437500,63.476562,446.289062,2.756207
704,102.539062,13.671875,20.507812,35.644531,333.496094,2.760113
705,-35.644531,11.230469,24.902344,-22.460938,-193.847656,2.764020
706,-133.789062,16.601562,33.203125,-36.132812,-459.472656,2.767926
707,-79.101562,13.183594,34.667969,13.671875,-74.707031,2.771832
708,74.707031,10.742188,27.343750,64.941406,459.960938,2.787503
709,111.328125,10.253906,32.226562,59.570312,423.339844,2.791409
710,-3.906250,17.089844,43.945312,16.113281,-98.632812,2.795315
711,-126.953125,16.601562,45.898438,-11.718750,-463.867188,2.799222
712,-97.167969,4.882812,40.039062,25.878906,-173.828125,2.803128
713,52.246094,5.859375,36.621094,81.054688,383.300781,2.807034
714,89.355469,4.394531,32.226562,63.964844,416.015625,2.810940
715,-21.972656,2.929688,31.738281,4.882812,-66.894531,2.814847
716,-141.601562,16.601562,40.039062,-26.855469,-466.796875,2.818753
717,-112.304688,24.414062,40.527344,3.417969,-243.652344,2.822659
718,37.109375,11.230469,28.320312,48.828125,314.941406,2.826565
719,115.234375,0.976562,22.949219,40.527344,477.539062,2.830472
720,35.644531,15.136719,26.367188,-6.347656,34.667969,2.832202
721,-95.703125,26.855469,33.203125,-40.527344,-419.433594,2.836108
722,-83.984375,26.367188,30.273438,-22.460938,-234.375000,2.840014
723,61.523438,26.367188,20.507812,31.250000,321.289062,2.843920
724,158.203125,23.925781,20.507812,46.386719,549.316406,2.847827
725,83.007812,24.414062,24.414062,-0.976562,152.832031,2.851733
726,-61.035156,38.574219,29.785156,-37.109375,-360.351562,2.855639
727,-77.636719,45.410156,31.250000,-12.695312,-316.406250,2.859545
728,45.410156,33.203125,28.320312,45.410156,199.707031,2.863452
729,151.367188,33.691406,28.808594,69.824219,490.234375,2.867358
730,82.031250,32.226562,27.832031,21.484375,104.492188,2.871264
731,-65.917969,30.273438,36.132812,-18.066406,-421.386719,2.875170
732,-102.539062,34.179688,37.109375,-8.300781,-378.417969,2.875625
733,11.718750,41.503906,36.621094,41.992188,131.835938,2.879531
734,145.019531,44.433594,40.527344,84.472656,499.511719,2.883437
735,102.050781,41.992188,35.644531,42.480469,211.914062,2.887344
736,-42.968750,35.644531,35.644531,-16.601562,-359.863281,2.891250
737,-100.097656,29.785156,28.320312,-21.484375,-415.527344,2.895156
738,-12.207031,31.250000,21.484375,21.972656,78.613281,2.899062
739,126.953125,39.062500,23.437500,58.105469,537.597656,2.902969
740,115.234375,49.316406,33.203125,32.226562,288.085938,2.906875
741,-39.550781,45.898438,36.621094,-24.414062,-263.183594,2.910781
742,-121.582031,34.179688,31.250000,-38.085938,-402.343750,2.914687
743,-40.527344,25.878906,22.460938,8.300781,-7.324219,2.918594
744,109.863281,26.367188,24.902344,64.453125,471.679688,2.929462
745,105.468750,29.296875,29.296875,41.503906,325.195312,2.933369
746,-33.691406,30.273438,34.667969,-16.113281,-214.355469,2.937275
747,-121.582031,24.902344,41.015625,-28.320312,-496.093750,2.941181
748,-62.988281,18.554688,32.714844,13.183594,-92.773438,2.945087
749,98.144531,28.320312,33.203125,75.195312,482.910156,2.948994
750,125.000000,33.203125,37.597656,66.406250,355.957031,2.952900
751,-5.859375,25.878906,38.574219,6.835938,-176.269531,2.956806
752,-106.445312,29.296875,41.503906,-14.160156,-490.722656,2.960712
753,-49.804688,29.785156,40.527344,23.925781,-171.875000,2.964619
754,110.351562,22.949219,33.691406,68.359375,377.441406,2.968525
755,164.550781,30.761719,31.250000,66.894531,395.996094,2.972431
756,60.058594,44.921875,37.109375,20.996094,-67.382812,2.970195
757,-69.824219,34.179688,31.250000,-21.972656,-461.914062,2.974101
758,-39.550781,22.949219,24.902344,5.371094,-191.406250,2.978007
759,114.746094,31.250000,21.972656,53.710938,370.605469,2.981913
760,174.804688,32.226562,20.019531,47.363281,475.097656,2.985820
761,73.242188,29.296875,21.972656,-1.953125,20.507812,2.989726
762,-70.312500,38.085938,25.390625,-42.968750,-457.519531,2.993632
763,-62.011719,44.433594,28.320312,-15.136719,-249.023438,2.997538
764,84.472656,32.226562,24.414062,42.968750,333.984375,3.001445
765,154.296875,15.625000,15.625000,43.457031,509.277344,3.005351
766,63.964844,16.113281,24.902344,0.976562,101.562500,3.009257
767,-62.500000,13.183594,47.363281,-8.789062,-378.906250,3.013163
768,-64.941406,16.601562,47.363281,25.878906,-247.558594,3.002751
769,40.039062,27.832031,21.972656,50.292969,286.132812,3.006657
770,119.628906,20.019531,15.136719,49.804688,515.136719,3.010564
771,58.593750,26.855469,24.902344,16.601562,109.863281,3.014470
772,-95.214844,27.832031,22.460938,-36.132812,-405.273438,3.018376
773,-122.070312,19.531250,20.507812,-22.460938,-348.144531,3.022282
774,9.765625,28.808594,19.531250,34.667969,166.992188,3.026189
775,133.300781,40.039062,20.019531,56.640625,473.144531,3.030095
776,85.449219,40.039062,21.484375,12.207031,140.136719,3.034001
777,-57.128906,39.550781,20.507812,-34.667969,-367.675781,3.037907
778,-85.937500,46.875000,19.042969,-13.671875,-414.550781,3.041814
779,20.996094,46.386719,20.996094,41.992188,81.054688,3.045720
780,151.367188,37.597656,20.507812,72.753906,496.093750,3.072222
781,123.535156,36.621094,22.460938,40.039062,242.675781,3.076128
782,-30.273438,33.203125,29.785156,-22.949219,-299.804688,3.080035
783,-94.726562,30.761719,27.343750,-33.203125,-425.781250,3.083941
784,4.882812,33.691406,21.484375,20.996094,2.929688,3.087847
785,151.855469,34.179688,18.066406,62.988281,448.242188,3.091753
786,138.671875,42.968750,24.414062,42.480469,268.066406,3.095660
787,-5.371094,46.875000,31.738281,-7.324219,-248.535156,3.099566
788,-94.726562,25.878906,27.343750,-22.949219,-420.410156,3.103472
789,-19.042969,22.460938,22.460938,25.390625,-9.277344,3.107378
790,134.277344,22.949219,18.554688,64.453125,467.773438,3.111285
791,142.089844,18.066406,18.066406,38.574219,319.824219,3.115191
792,6.835938,29.785156,25.390625,-9.277344,-189.453125,3.110190
793,-96.191406,37.109375,33.203125,-25.390625,-431.152344,3.114096
794,-38.574219,36.132812,30.273438,16.601562,-64.453125,3.118002
795,118.164062,28.808594,26.367188,75.195312,451.171875,3.121908
796,146.972656,28.320312,30.761719,66.406250,391.601562,3.125815
797,23.925781,33.203125,34.667969,12.695312,-130.859375,3.129721
798,-95.703125,29.296875,30.273438,-21.484375,-490.722656,3.133627
799,-56.152344,23.437500,21.484375,8.300781,-191.406250,3.137533
800,108.398438,28.808594,24.414062,70.312500,409.179688,3.141440
801,168.945312,36.621094,30.761719,62.988281,436.035156,3.145346
802,58.593750,29.296875,26.855469,1.464844,-63.476562,3.149252
803,-72.753906,31.250000,30.761719,-24.414062,-464.355469,3.153158
804,-52.734375,26.367188,28.808594,7.812500,-248.535156,3.145347
805,100.097656,17.578125,20.507812,63.476562,312.500000,3.149253
806,175.292969,25.878906,21.484375,70.800781,453.125000,3.153160
807,79.589844,33.691406,25.390625,20.507812,45.898438,3.157066
808,-64.453125,36.132812,27.343750,-21.484375,-403.808594,3.160972
809,-60.058594,33.691406,27.832031,3.906250,-250.000000,3.164878
810,84.472656,38.574219,28.320312,58.593750,294.921875,3.168785
811,171.875000,34.179688,25.390625,64.941406,493.164062,3.172691
812,82.031250,17.578125,22.460938,11.718750,68.359375,3.176597
813,-65.917969,20.996094,25.390625,-28.808594,-437.011719,3.180503
814,-75.195312,39.062500,26.367188,-2.441406,-338.378906,3.184410
815,47.851562,35.644531,20.019531,49.804688,198.242188,3.188316
816,153.320312,18.066406,18.066406,63.964844,498.535156,3.206455
817,90.332031,17.578125,16.113281,11.718750,128.417969,3.210361
818,-52.246094,25.878906,24.414062,-34.667969,-398.437500,3.214267
819,-79.589844,30.273438,33.203125,-15.136719,-358.886719,3.218173
820,35.644531,34.179688,27.343750,41.015625,151.367188,3.222080
821,163.574219,34.179688,18.554688,73.730469,516.113281,3.225986
822,118.164062,29.296875,14.160156,29.785156,232.910156,3.229892
823,-18.066406,36.621094,11.230469,-15.136719,-312.988281,3.233798
824,-68.847656,39.550781,14.160156,-10.742188,-390.625000,3.237705
825,4.882812,27.832031,20.996094,15.136719,71.777344,3.241611
826,138.183594,19.042969,21.972656,50.292969,481.445312,3.245517
827,128.417969,25.878906,20.507812,27.343750,217.285156,3.249423
828,-20.019531,35.644531,22.460938,-28.808594,-323.242188,3.252343
829,-95.214844,34.179688,28.808594,-34.179688,-459.960938,3.256249
830,-9.765625,25.878906,26.367188,15.136719,-10.742188,3.260156
831,136.718750,23.437500,21.972656,66.894531,467.285156,3.264062
832,131.835938,31.738281,28.808594,49.316406,310.546875,3.267968
833,-12.695312,30.273438,38.085938,-0.976562,-213.378906,3.271874
834,-110.351562,22.949219,31.738281,-21.484375,-445.312500,3.275781
835,-43.945312,24.902344,24.414062,15.625000,-65.917969,3.279687
836,106.933594,17.578125,26.855469,62.500000,437.500000,3.283593
837,122.070312,19.042969,32.226562,41.503906,335.937500,3.287499
838,-3.906250,24.902344,37.109375,-6.835938,-217.773438,3.291406
839,-109.375000,22.949219,36.132812,-28.320312,-517.578125,3.295312
840,-55.175781,21.972656,30.761719,2.929688,-170.898438,3.289130
841,98.632812,16.601562,25.878906,56.640625,389.160156,3.293037
842,137.695312,16.601562,19.531250,45.898438,395.996094,3.296943
843,25.878906,23.437500,25.390625,-6.835938,-108.398438,3.300849
844,-95.703125,34.179688,32.226562,-34.667969,-491.699219,3.304755
845,-62.988281,39.550781,28.320312,-1.953125,-209.960938,3.308662
846,88.867188,28.320312,25.390625,54.687500,380.859375,3.312568
847,145.019531,17.578125,18.554688,42.968750,460.449219,3.316474
848,41.503906,18.066406,21.484375,-12.207031,1.464844,3.320380
849,-89.355469,22.949219,31.738281,-37.109375,-409.179688,3.324287
850,-77.148438,23.437500,31.738281,-8.300781,-222.656250,3.328193
851,65.917969,30.273438,27.832031,51.757812,317.871094,3.332099
852,146.484375,31.250000,25.390625,65.429688,479.003906,3.349006
853,55.175781,18.554688,23.925781,8.300781,83.496094,3.352912
854,-82.031250,18.066406,32.714844,-30.273438,-388.183594,3.356818
855,-83.496094,18.066406,32.714844,-2.929688,-306.640625,3.360724
856,45.898438,16.113281,21.972656,49.316406,243.652344,3.364631
857,153.320312,28.320312,26.367188,76.171875,482.421875,3.368537
858,87.890625,38.574219,31.250000,32.226562,90.332031,3.372443
859,-62.500000,36.621094,31.738281,-22.949219,-397.949219,3.376349
860,-84.960938,27.343750,35.644531,-2.929688,-351.562500,3.380256
861,25.390625,13.671875,26.367188,49.316406,145.019531,3.384162
862,136.718750,8.789062,17.578125,67.871094,480.468750,3.388068
863,100.585938,22.949219,29.296875,41.015625,175.292969,3.391974
864,-42.968750,50.781250,42.480469,1.464844,-341.796875,3.392443
865,-100.097656,33.203125,35.156250,-0.976562,-369.140625,3.396350
866,6.835938,9.765625,24.414062,43.945312,105.957031,3.400256
867,144.531250,20.019531,20.996094,73.730469,516.601562,3.404162
868,109.375000,27.343750,22.949219,36.132812,241.699219,3.408068
869,-41.015625,30.273438,26.855469,-17.578125,-336.425781,3.411975
870,-102.539062,38.085938,28.808594,-23.437500,-449.707031,3.415881
871,-9.277344,37.597656,26.855469,26.855469,27.343750,3.419787
872,138.671875,31.250000,28.808594,68.847656,475.585938,3.423693
873,114.257812,24.414062,33.691406,34.667969,240.722656,3.427600
874,-36.621094,23.925781,37.109375,-17.089844,-299.316406,3.431506
875,-114.257812,23.925781,38.574219,-20.996094,-476.074219,3.435412
876,-36.132812,17.578125,34.179688,23.437500,-78.125000,3.426337
877,119.628906,28.320312,27.832031,67.382812,453.125000,3.430243
878,128.906250,27.343750,27.832031,43.945312,354.980469,3.434149
879,-5.859375,16.601562,30.273438,-14.160156,-192.382812,3.438055
880,-103.515625,23.437500,30.761719,-26.855469,-429.687500,3.441962
881,-35.644531,31.250000,27.832031,22.949219,-40.039062,3.445868
882,119.628906,19.042969,17.578125,65.917969,471.191406,3.449774
883,145.507812,17.089844,18.554688,42.480469,389.648438,3.453680
884,27.343750,31.250000,24.902344,-8.789062,-126.953125,3.457587
885,-82.031250,33.203125,23.925781,-29.296875,-470.214844,3.461493
886,-44.433594,22.460938,16.113281,5.371094,-170.410156,3.465399
887,112.792969,28.808594,17.089844,62.988281,415.039062,3.469305
888,155.761719,32.226562,16.113281,54.687500,469.238281,3.497369
889,46.875000,39.550781,25.878906,-0.976562,-31.250000,3.501275
890,-75.683594,52.246094,35.156250,-27.832031,-458.496094,3.505181
891,-64.453125,37.597656,22.949219,-1.464844,-210.937500,3.509088
892,74.218750,18.554688,17.089844,46.875000,355.957031,3.512994
893,137.695312,18.554688,19.531250,47.363281,456.054688,3.516900
894,39.550781,16.113281,20.996094,-1.464844,22.460938,3.520806
895,-99.121094,14.648438,27.832031,-38.085938,-413.574219,3.524713
896,-91.796875,24.414062,31.250000,-9.277344,-218.750000,3.528619
897,54.687500,24.902344,28.808594,52.734375,345.703125,3.532525
898,147.949219,22.949219,27.832031,69.824219,496.093750,3.536431
899,59.570312,19.042969,23.437500,17.578125,75.683594,3.540338
900,-85.449219,14.648438,26.367188,-26.855469,-413.574219,3.520314
901,-92.285156,23.437500,30.761719,-4.394531,-324.707031,3.524220
902,34.667969,20.507812,25.878906,47.851562,216.796875,3.528126
903,141.601562,11.230469,21.484375,68.847656,520.996094,3.532032
904,86.914062,18.066406,31.250000,27.343750,154.296875,3.535939
905,-52.734375,40.039062,46.386719,-16.601562,-409.179688,3.539845
906,-91.796875,36.132812,39.550781,-13.183594,-405.761719,3.543751
907,23.925781,30.273438,35.156250,40.039062,123.046875,3.547657
908,153.320312,39.062500,36.132812,73.242188,500.976562,3.551564
909,99.121094,30.273438,31.738281,23.925781,172.363281,3.555470
910,-64.941406,18.554688,36.132812,-39.062500,-372.558594,3.559376
911,-118.652344,19.531250,38.574219,-32.714844,-431.152344,3.563282
912,-16.601562,29.785156,33.203125,24.902344,16.601562,3.586394
913,114.257812,29.296875,29.785156,62.988281,466.796875,3.590300
914,88.867188,34.179688,33.203125,33.203125,252.929688,3.594206
915,-59.082031,41.992188,38.574219,-24.414062,-306.152344,3.598112
916,-135.742188,42.480469,38.574219,-34.667969,-454.101562,3.602019
917,-52.246094,39.550781,37.597656,14.160156,-6.347656,3.605925
918,97.656250,37.109375,33.691406,58.105469,453.125000,3.609831
919,93.750000,37.597656,37.597656,26.855469,263.671875,3.613737
920,-48.339844,41.503906,43.457031,-31.250000,-253.906250,3.617644
921,-132.324219,43.457031,41.015625,-44.433594,-505.859375,3.621550
922,-64.453125,42.480469,35.156250,-0.488281,-79.589844,3.625456
923,85.449219,40.527344,35.644531,47.851562,472.167969,3.629362
924,99.121094,34.667969,35.156250,22.460938,364.257812,3.629177
925,-26.855469,37.109375,41.992188,-33.691406,-147.949219,3.633083
926,-125.976562,46.386719,48.828125,-49.316406,-473.632812,3.636989
927,-69.824219,37.597656,41.503906,-9.765625,-156.738281,3.640896
928,85.449219,27.343750,34.667969,38.574219,405.273438,3.644802
929,120.117188,27.832031,31.738281,24.902344,405.761719,3.648708
930,4.394531,25.878906,36.621094,-26.367188,-71.289062,3.652614
931,-121.582031,29.785156,42.480469,-54.687500,-450.683594,3.656521
932,-89.843750,33.203125,40.527344,-20.996094,-189.453125,3.660427
933,57.617188,25.390625,32.714844,30.761719,375.000000,3.664333
934,117.187500,17.578125,27.832031,31.250000,443.359375,3.668239
935,20.996094,15.136719,31.250000,-12.207031,-49.316406,3.672146
936,-119.628906,20.507812,40.039062,-42.480469,-490.234375,3.680948
937,-115.234375,14.160156,29.296875,-23.925781,-268.554688,3.684854
938,39.062500,18.554688,20.507812,38.085938,306.640625,3.688760
939,127.929688,28.808594,25.878906,61.035156,470.703125,3.692666
940,37.109375,20.996094,26.367188,6.835938,38.574219,3.696573
941,-109.375000,15.625000,29.785156,-43.945312,-443.847656,3.700479
942,-107.910156,10.742188,30.761719,-18.554688,-298.828125,3.704385
943,32.714844,8.300781,26.855469,41.015625,266.601562,3.708291
944,132.324219,10.742188,25.390625,58.593750,458.496094,3.712198
945,60.546875,11.230469,23.437500,12.207031,68.847656,3.716104
946,-85.449219,14.160156,23.925781,-40.039062,-393.066406,3.720010
947,-96.679688,27.343750,28.320312,-20.507812,-350.585938,3.723916
948,29.785156,32.226562,22.949219,30.761719,146.972656,3.728904
949,144.531250,32.714844,11.718750,44.921875,505.859375,3.732810
950,102.539062,40.039062,17.089844,17.089844,183.593750,3.736716
951,-54.199219,29.296875,28.320312,-28.320312,-409.179688,3.740623
952,-106.445312,20.507812,29.296875,-27.832031,-418.457031,3.744529
953,-2.441406,18.066406,21.972656,22.949219,96.679688,3.748435
954,129.882812,20.019531,24.902344,60.546875,478.027344,3.752341
955,96.679688,29.296875,29.785156,19.042969,190.429688,3.756248
956,-62.988281,19.531250,27.832031,-39.550781,-345.703125,3.760154
957,-122.070312,15.625000,29.785156,-29.296875,-440.429688,3.764060
958,-27.832031,14.648438,28.808594,19.531250,10.742188,3.767966
959,116.699219,8.789062,27.832031,62.011719,502.441406,3.771873
960,105.468750,10.742188,26.367188,34.667969,317.382812,3.783967
961,-39.550781,14.160156,31.738281,-20.996094,-265.625000,3.787873
962,-117.675781,17.089844,37.109375,-23.437500,-413.085938,3.791779
963,-40.039062,19.531250,30.273438,22.460938,23.925781,3.795685
964,112.304688,23.925781,25.390625,69.335938,499.511719,3.799592
965,129.882812,32.226562,36.621094,58.105469,359.863281,3.803498
966,-8.300781,32.714844,40.527344,-2.929688,-198.242188,3.807404
967,-107.421875,28.808594,38.085938,-20.996094,-465.332031,3.811310
968,-44.921875,14.160156,28.808594,17.578125,-80.078125,3.815217
969,102.050781,12.207031,18.066406,60.058594,481.445312,3.819123
970,132.324219,24.902344,23.925781,47.363281,424.804688,3.823029
971,13.671875,25.390625,28.808594,-10.742188,-115.722656,3.826935
972,-104.003906,34.179688,28.808594,-36.621094,-436.523438,3.807163
973,-59.082031,41.503906,27.832031,1.953125,-132.812500,3.811070
974,97.656250,36.621094,29.296875,62.500000,422.363281,3.814976
975,143.066406,36.621094,31.738281,59.570312,461.914062,3.818882
976,25.878906,28.808594,26.855469,-5.371094,-56.152344,3.822788
977,-104.980469,20.019531,27.343750,-36.132812,-444.824219,3.826695
978,-78.125000,19.042969,26.855469,1.953125,-185.058594,3.830601
979,77.636719,21.972656,23.437500,61.035156,364.257812,3.834507
980,151.855469,25.878906,25.390625,65.429688,482.421875,3.838413
981,59.082031,38.574219,27.832031,13.671875,2.929688,3.842320
982,-81.542969,37.597656,29.785156,-27.832031,-436.523438,3.846226
983,-80.566406,29.296875,26.855469,-6.347656,-262.207031,3.850132
984,65.429688,31.250000,20.507812,52.734375,296.875000,3.866458
985,154.785156,24.414062,18.554688,60.546875,538.574219,3.870364
986,65.917969,14.160156,12.695312,6.347656,118.652344,3.874270
987,-74.218750,25.878906,19.531250,-30.273438,-389.648438,3.878176
988,-79.589844,40.039062,28.808594,-12.207031,-326.171875,3.882083
989,48.828125,31.250000,20.996094,39.550781,223.632812,3.885989
990,162.109375,33.203125,22.460938,63.476562,531.738281,3.889895
991,99.609375,35.644531,25.390625,20.019531,132.812500,3.893801
992,-59.082031,23.925781,23.437500,-28.320312,-358.886719,3.897708
993,-92.285156,24.902344,22.949219,-10.742188,-343.750000,3.901614
994,24.414062,27.832031,16.113281,41.992188,158.203125,3.905520
995,147.460938,26.367188,9.765625,71.777344,571.289062,3.909426
996,107.910156,27.832031,18.554688,40.039062,264.648438,3.909155
997,-43.945312,30.273438,29.296875,-14.160156,-291.992188,3.913062
998,-103.515625,20.507812,27.832031,-18.066406,-334.960938,3.916968
999,-2.929688,7.324219,23.437500,30.761719,113.769531,3.920874
1000,137.695312,6.347656,22.460938,69.824219,532.226562,3.924780
1001,123.046875,28.320312,29.296875,44.921875,291.992188,3.928687
1002,-23.437500,37.109375,35.156250,-8.300781,-261.718750,3.932593
1003,-100.097656,33.691406,37.109375,-12.695312,-412.109375,3.936499
1004,-13.183594,34.179688,31.250000,33.203125,-1.464844,3.940405
1005,136.230469,27.832031,25.878906,73.242188,501.464844,3.944312
1006,132.812500,26.367188,29.296875,45.410156,298.828125,3.948218
1007,-0.488281,30.761719,33.691406,-4.882812,-273.925781,3.952124
1008,-75.683594,28.808594,40.039062,-0.976562,-459.960938,3.943169
1009,-3.906250,21.972656,37.109375,40.527344,-70.312500,3.947075
1010,129.882812,29.296875,25.390625,67.871094,458.007812,3.950982
1011,135.742188,36.621094,21.484375,39.062500,370.605469,3.954888
1012,18.554688,40.527344,26.855469,-8.789062,-161.132812,3.958794
1013,-86.425781,28.808594,21.972656,-26.855469,-468.261719,3.962700
1014,-36.621094,18.554688,10.742188,8.300781,-137.207031,3.966607
1015,120.117188,20.996094,3.417969,57.617188,446.777344,3.970513
1016,159.179688,24.414062,8.789062,53.222656,410.644531,3.974419
1017,43.945312,27.832031,18.554688,2.441406,-138.671875,3.978325
1018,-81.054688,31.738281,24.902344,-30.273438,-488.769531,3.982232
1019,-46.386719,35.644531,23.437500,7.812500,-207.031250,3.986138
1020,101.074219,29.785156,19.042969,65.429688,369.628906,4.006908
1021,147.949219,20.507812,20.507812,54.687500,447.265625,4.010814
1022,41.015625,13.183594,21.484375,2.441406,-41.015625,4.014720
1023,-93.261719,14.160156,25.878906,-28.808594,-436.035156,4.018627
1024,-77.636719,17.578125,27.832031,-2.441406,-229.003906,4.022533
1025,68.359375,19.042969,22.460938,58.105469,325.683594,4.026439
1026,146.972656,22.949219,23.437500,62.988281,479.980469,4.030345
1027,67.382812,34.179688,26.367188,5.371094,22.949219,4.034252
1028,-72.265625,40.039062,23.925781,-34.667969,-421.386719,4.038158
1029,-88.867188,25.390625,20.019531,-20.019531,-311.035156,4.042064
1030,47.851562,12.695312,15.136719,33.203125,225.585938,4.045970
1031,153.808594,9.277344,11.718750,52.734375,505.371094,4.049877
1032,82.519531,15.625000,18.554688,7.812500,116.210938,4.049915
1033,-63.964844,24.414062,29.296875,-34.667969,-412.109375,4.053821
1034,-92.285156,25.390625,24.902344,-18.066406,-364.257812,4.057727
1035,27.343750,20.507812,17.578125,43.457031,162.109375,4.061633
1036,146.484375,11.230469,16.113281,73.242188,513.183594,4.065540
1037,94.726562,16.113281,23.437500,35.156250,191.894531,4.069446
1038,-51.269531,24.414062,29.296875,-13.671875,-334.472656,4.073352
1039,-90.820312,24.902344,26.367188,-5.859375,-382.324219,4.077258
1040,20.507812,29.296875,21.972656,48.828125,82.519531,4.081165
1041,154.785156,30.273438,20.996094,84.472656,477.050781,4.085071
1042,117.187500,23.925781,25.390625,41.503906,190.429688,4.088977
1043,-40.527344,22.460938,23.925781,-21.484375,-339.355469,4.092883
1044,-99.121094,23.437500,22.949219,-15.625000,-421.875000,4.097185
1045,-3.906250,22.949219,22.949219,38.574219,69.335938,4.101092
1046,142.578125,22.460938,22.949219,82.519531,514.648438,4.104998
1047,132.812500,24.414062,23.925781,55.175781,281.250000,4.108904
1048,-16.113281,24.902344,22.949219,-8.789062,-240.722656,4.112810
1049,-98.144531,26.855469,26.367188,-20.996094,-432.128906,4.116717
1050,-23.925781,19.042969,23.437500,25.878906,-41.015625,4.120623
1051,125.000000,11.718750,19.042969,70.800781,459.960938,4.124529
1052,137.695312,14.160156,24.902344,54.199219,297.363281,4.128435
1053,8.300781,23.437500,29.785156,6.347656,-230.468750,4.132342
1054,-98.632812,37.109375,29.296875,-20.996094,-485.839844,4.136248
1055,-43.457031,30.273438,25.390625,11.718750,-103.027344,4.140154
1056,112.304688,29.785156,24.902344,65.429688,416.015625,4.151581
1057,129.882812,30.761719,24.414062,41.992188,355.957031,4.155487
1058,2.929688,27.832031,22.949219,-17.578125,-119.628906,4.159393
1059,-107.910156,33.203125,27.343750,-41.503906,-485.351562,4.163299
1060,-66.406250,28.808594,28.808594,-4.882812,-178.710938,4.167206
1061,86.425781,28.320312,25.390625,53.710938,412.597656,4.171112
1062,131.347656,27.343750,22.949219,41.503906,440.917969,4.175018
1063,21.484375,19.042969,23.925781,-17.578125,-48.339844,4.178924
1064,-99.121094,29.785156,32.226562,-36.621094,-424.316406,4.182831
1065,-75.683594,32.226562,30.761719,-3.417969,-213.867188,4.186737
1066,75.195312,22.949219,23.437500,51.269531,312.988281,4.190643
1067,135.253906,17.578125,20.507812,55.175781,448.242188,4.194549
1068,36.621094,22.460938,23.925781,5.371094,26.367188,4.194689
1069,-95.703125,34.667969,30.761719,-31.250000,-420.898438,4.198595
1070,-83.984375,34.667969,35.156250,0.000000,-299.804688,4.202501
1071,67.871094,38.574219,32.714844,61.035156,256.347656,4.206408
1072,155.761719,38.574219,26.855469,65.917969,488.281250,4.210314
1073,69.824219,22.949219,26.855469,12.207031,49.316406,4.214220
1074,-74.218750,20.507812,31.738281,-23.925781,-421.875000,4.218126
1075,-85.449219,25.390625,36.621094,4.882812,-347.167969,4.222033
1076,44.433594,25.878906,31.738281,62.011719,213.378906,4.225939
1077,162.109375,28.320312,28.320312,80.566406,518.066406,4.229845
1078,104.003906,36.132812,32.226562,34.179688,124.023438,4.233751
1079,-57.617188,31.250000,29.785156,-17.578125,-373.535156,4.237658
1080,-88.867188,30.273438,33.691406,-4.882812,-339.843750,4.230659
1081,33.691406,37.109375,32.714844,49.316406,159.667969,4.234565
1082,162.109375,27.832031,23.437500,81.542969,499.511719,4.238471
1083,123.046875,28.808594,27.343750,46.875000,193.847656,4.242378
1084,-30.273438,36.132812,37.109375,-11.230469,-311.035156,4.246284
1085,-82.031250,34.667969,37.109375,-11.230469,-357.421875,4.250190
1086,24.414062,37.597656,33.691406,45.410156,124.511719,4.254096
1087,163.085938,35.644531,30.273438,82.031250,553.222656,4.258003
1088,132.812500,23.925781,29.785156,44.921875,276.367188,4.261909
1089,-18.066406,20.019531,31.250000,-14.160156,-281.250000,4.265815
1090,-97.167969,16.113281,29.785156,-17.578125,-413.574219,4.269721
1091,-7.812500,21.972656,27.832031,28.320312,-13.671875,4.273628
1092,148.925781,34.667969,28.320312,69.335938,431.640625,4.287904
1093,139.160156,36.132812,31.250000,47.851562,277.343750,4.291810
1094,-10.253906,35.156250,34.179688,-4.394531,-250.976562,4.295717
1095,-95.703125,36.621094,32.226562,-19.531250,-472.656250,4.299623
1096,-9.765625,33.691406,18.066406,29.296875,-99.121094,4.303529
1097,149.414062,30.761719,20.996094,93.261719,407.226562,4.307435
1098,155.761719,27.832031,35.644531,75.195312,326.171875,4.311342
1099,6.347656,20.019531,39.062500,1.464844,-175.781250,4.315248
1100,-107.910156,16.113281,41.503906,-30.273438,-423.339844,4.319154
1101,-55.175781,15.625000,38.085938,15.136719,-67.871094,4.323060
1102,88.867188,9.277344,25.878906,64.941406,448.730469,4.326967
1103,123.046875,8.300781,26.855469,50.781250,412.597656,4.330873
1104,13.183594,15.625000,39.550781,-1.953125,-110.351562,4.334327
1105,-110.351562,22.460938,46.386719,-19.531250,-484.863281,4.338233
1106,-89.843750,9.765625,41.503906,15.136719,-201.171875,4.342139
1107,62.011719,-0.976562,29.296875,63.476562,333.007812,4.346046
1108,127.929688,-1.953125,26.855469,66.894531,384.277344,4.349952
1109,25.390625,3.417969,36.621094,20.019531,-57.128906,4.353858
1110,-104.492188,9.765625,36.621094,-21.972656,-457.519531,4.357764
1111,-83.496094,1.953125,37.109375,6.835938,-216.308594,4.361671
1112,62.011719,-10.253906,37.109375,67.871094,333.496094,4.365577
1113,138.671875,6.347656,34.179688,66.406250,506.347656,4.369483
1114,37.597656,18.554688,33.203125,9.765625,69.824219,4.373389
1115,-108.886719,12.207031,32.714844,-24.902344,-440.429688,4.377296
1116,-106.933594,14.160156,35.644531,-2.441406,-299.804688,4.380127
1117,33.203125,19.042969,32.714844,49.316406,278.320312,4.384033
1118,139.160156,17.578125,28.320312,70.800781,526.367188,4.387939
1119,62.988281,5.371094,29.296875,22.460938,124.023438,4.391846
1120,-86.425781,0.488281,27.832031,-37.597656,-416.992188,4.395752
1121,-95.703125,2.441406,31.738281,-20.996094,-373.046875,4.399658
1122,34.179688,-4.882812,38.085938,48.828125,186.523438,4.403564
1123,152.343750,2.929688,29.785156,74.218750,506.835938,4.407471
1124,93.261719,14.648438,17.578125,20.996094,150.390625,4.411377
1125,-62.500000,16.601562,16.601562,-26.855469,-373.046875,4.415283
1126,-91.796875,23.925781,29.785156,-6.835938,-367.187500,4.419189
1127,18.554688,34.667969,27.343750,44.433594,101.562500,4.423096
1128,141.601562,31.738281,20.996094,76.660156,488.281250,4.426908
1129,117.187500,34.667969,30.761719,50.292969,241.699219,4.430814
1130,-27.343750,43.457031,38.574219,0.488281,-310.058594,4.434721
1131,-95.214844,26.855469,34.179688,-1.464844,-406.738281,4.438627
1132,4.882812,20.996094,34.179688,50.292969,39.550781,4.442533
1133,151.855469,22.460938,37.597656,96.191406,483.398438,4.446439
1134,131.835938,19.042969,35.644531,62.011719,261.230469,4.450346
1135,-19.042969,31.250000,28.808594,-11.230469,-287.109375,4.454252
1136,-104.003906,36.132812,30.273438,-20.996094,-484.375000,4.458158
1137,-36.132812,25.390625,30.273438,32.714844,-56.640625,4.462064
1138,125.976562,26.367188,30.761719,83.984375,486.328125,4.465971
1139,147.460938,29.785156,31.738281,60.058594,324.707031,4.469877
1140,0.000000,23.925781,31.738281,-4.882812,-231.933594,4.481432
1141,-106.933594,30.273438,37.597656,-24.902344,-441.406250,4.485339
1142,-51.757812,31.250000,35.156250,18.066406,-90.332031,4.489245
1143,103.027344,23.437500,28.320312,69.335938,405.761719,4.493151
1144,133.789062,25.878906,30.761719,57.128906,410.644531,4.497057
1145,5.859375,29.296875,33.203125,5.371094,-79.101562,4.500964
1146,-108.398438,23.437500,35.644531,-19.042969,-436.523438,4.504870
1147,-70.800781,16.601562,32.714844,14.648438,-152.343750,4.508776
1148,84.472656,20.996094,29.785156,67.382812,388.183594,4.512682
1149,143.554688,26.367188,30.761719,61.523438,387.695312,4.516589
1150,20.019531,18.554688,23.437500,2.441406,-79.101562,4.520495
1151,-119.628906,23.437500,23.437500,-31.250000,-442.871094,4.524401
1152,-86.914062,31.250000,25.878906,3.906250,-229.980469,4.501779
1153,65.917969,23.437500,18.066406,60.058594,376.953125,4.505685
1154,137.695312,28.320312,20.996094,65.917969,508.789062,4.509591
1155,50.781250,33.691406,26.367188,20.507812,26.855469,4.513498
1156,-86.425781,30.273438,25.878906,-21.484375,-395.019531,4.517404
1157,-85.937500,24.902344,24.414062,1.464844,-236.816406,4.521310
1158,53.222656,25.878906,19.531250,54.199219,262.695312,4.525216
1159,146.484375,36.132812,18.554688,67.382812,474.121094,4.529123
1160,64.453125,32.226562,20.019531,17.089844,79.589844,4.533029
1161,-71.777344,32.226562,16.601562,-28.320312,-386.718750,4.536935
1162,-67.382812,41.015625,13.183594,5.859375,-305.175781,4.540841
1163,55.175781,41.503906,18.554688,63.964844,216.796875,4.544748
1164,140.625000,23.437500,18.066406,73.242188,553.222656,4.571972
1165,78.613281,12.695312,18.554688,31.250000,210.449219,4.575878
1166,-60.546875,16.601562,23.925781,-12.695312,-356.445312,4.579784
1167,-100.097656,14.648438,23.437500,-3.417969,-356.933594,4.583690
1168,11.230469,18.066406,17.089844,50.781250,166.015625,4.587597
1169,143.066406,25.878906,20.996094,78.613281,506.835938,4.591503
1170,104.980469,27.343750,26.855469,40.039062,207.519531,4.595409
1171,-42.480469,31.738281,29.785156,-9.277344,-295.898438,4.599315
1172,-91.308594,30.761719,30.273438,-4.882812,-370.117188,4.603222
1173,5.859375,15.625000,18.554688,41.992188,70.312500,4.607128
1174,145.019531,12.207031,14.648438,72.753906,487.304688,4.611034
1175,120.605469,19.042969,20.019531,37.109375,253.417969,4.614940
1176,-26.367188,27.343750,29.296875,-20.507812,-267.578125,4.611154
1177,-94.238281,31.250000,33.691406,-22.460938,-412.597656,4.615060
1178,-6.347656,25.390625,27.832031,33.203125,-6.347656,4.618967
1179,136.230469,24.902344,23.437500,73.730469,473.144531,4.622873
1180,128.906250,29.785156,27.343750,48.339844,334.960938,4.626779
1181,-6.347656,36.621094,32.226562,-1.464844,-222.167969,4.630685
1182,-104.003906,36.132812,32.714844,-15.136719,-478.027344,4.634592
1183,-41.015625,17.089844,26.367188,22.460938,-100.585938,4.638498
1184,111.816406,14.160156,19.531250,66.894531,420.898438,4.642404
1185,134.765625,30.761719,20.996094,43.945312,314.453125,4.646310
1186,15.625000,32.714844,30.273438,-6.835938,-167.968750,4.650217
1187,-101.562500,26.855469,34.179688,-20.996094,-430.175781,4.654123
1188,-47.851562,25.390625,17.089844,20.019531,-137.207031,4.645495
1189,130.859375,28.808594,9.765625,87.402344,414.550781,4.649401
1190,151.367188,22.949219,18.554688,62.988281,403.808594,4.653307
1191,9.765625,17.578125,28.808594,-20.019531,-128.906250,4.657214
1192,-110.839844,16.113281,36.132812,-34.179688,-507.812500,4.661120
1193,-77.636719,14.160156,33.691406,7.812500,-250.976562,4.665026
1194,74.707031,17.578125,30.761719,52.734375,338.867188,4.668932
1195,125.976562,14.648438,30.273438,37.597656,441.894531,4.672839
1196,21.484375,8.789062,31.250000,-24.902344,-13.183594,4.676745
1197,-121.093750,6.347656,39.550781,-46.386719,-412.597656,4.680651
1198,-123.535156,5.859375,41.992188,-20.507812,-244.140625,4.684557
1199,29.785156,1.953125,35.644531,29.785156,337.402344,4.688464
1200,119.140625,-0.976562,34.179688,52.734375,560.058594,4.707168
1201,39.062500,14.160156,32.226562,1.953125,115.722656,4.711074
1202,-106.933594,19.531250,28.320312,-52.246094,-386.718750,4.714980
1203,-117.187500,5.859375,19.042969,-34.179688,-263.671875,4.718887
1204,14.648438,-2.929688,18.554688,25.390625,281.250000,4.722793
1205,120.117188,0.488281,20.996094,50.292969,542.968750,4.726699
1206,58.593750,9.765625,23.437500,10.253906,123.046875,4.730605
1207,-89.843750,12.695312,31.738281,-33.691406,-458.007812,4.734512
1208,-112.792969,19.531250,35.644531,-14.648438,-414.062500,4.738418
1209,7.324219,23.925781,29.296875,39.550781,143.554688,4.742324
1210,130.859375,19.531250,28.320312,71.289062,481.445312,4.746230
1211,80.566406,16.113281,29.296875,27.832031,147.949219,4.750137
1212,-70.800781,17.089844,27.832031,-31.250000,-342.773438,4.748770
1213,-103.027344,24.902344,34.179688,-12.695312,-342.773438,4.752676
1214,7.812500,26.367188,33.203125,37.597656,143.554688,4.756582
1215,141.113281,20.019531,25.390625,59.082031,520.507812,4.760489
1216,114.257812,18.066406,20.507812,24.414062,223.144531,4.764395
1217,-35.156250,29.296875,28.320312,-21.972656,-326.660156,4.768301
1218,-101.562500,37.109375,32.226562,-22.949219,-432.617188,4.772207
1219,-20.019531,22.460938,21.484375,20.019531,16.601562,4.776114
1220,121.582031,16.113281,18.066406,63.476562,452.636719,4.780020
1221,112.792969,20.019531,26.367188,39.062500,248.535156,4.783926
1222,-30.761719,18.554688,29.296875,-18.066406,-257.324219,4.787832
1223,-119.628906,19.042969,25.390625,-30.273438,-441.894531,4.791739
1224,-52.246094,22.949219,22.949219,15.136719,-53.222656,4.788903
1225,98.632812,24.414062,16.113281,51.757812,442.871094,4.792809
1226,105.957031,22.949219,14.648438,22.460938,312.500000,4.796715
1227,-20.996094,28.320312,23.925781,-20.019531,-202.148438,4.800622
1228,-123.046875,25.878906,28.808594,-35.156250,-475.097656,4.804528
1229,-70.800781,20.996094,29.296875,9.277344,-144.042969,4.808434
1230,86.425781,23.925781,26.367188,63.964844,401.855469,4.812340
1231,121.093750,29.296875,21.484375,36.132812,371.093750,4.816247
1232,8.300781,34.179688,24.414062,-21.972656,-127.441406,4.820153
1233,-104.003906,40.039062,30.273438,-37.597656,-461.425781,4.824059
1234,-62.988281,41.015625,20.507812,1.953125,-159.667969,4.827965
1235,83.496094,22.949219,6.347656,57.617188,423.339844,4.831872
1236,127.929688,19.042969,17.578125,40.527344,458.984375,4.863718
1237,12.207031,25.390625,28.808594,-19.531250,-65.429688,4.867625
1238,-123.046875,24.414062,30.273438,-44.921875,-458.496094,4.871531
1239,-88.867188,24.414062,28.808594,-9.277344,-211.425781,4.875437
1240,57.617188,21.484375,21.484375,50.292969,329.589844,4.879343
1241,131.835938,25.390625,23.437500,47.363281,454.589844,4.883250
1242,46.875000,24.902344,25.878906,4.394531,33.203125,4.887156
1243,-96.191406,19.042969,26.855469,-28.320312,-398.925781,4.891062
1244,-91.308594,23.925781,26.855469,-8.789062,-262.207031,4.894968
1245,44.921875,20.507812,23.925781,50.292969,317.382812,4.898875
1246,139.648438,15.625000,20.507812,59.082031,564.453125,4.902781
1247,66.894531,13.671875,19.531250,7.324219,145.507812,4.906687
1248,-77.148438,11.718750,28.320312,-23.925781,-366.210938,4.889848
1249,-100.585938,12.207031,26.855469,-6.835938,-260.742188,4.893754
1250,24.902344,15.625000,20.507812,41.503906,264.648438,4.897661
1251,146.972656,20.507812,20.019531,64.453125,559.082031,4.901567
1252,96.191406,27.343750,23.925781,28.808594,211.914062,4.905473
1253,-56.640625,25.390625,28.808594,-22.949219,-387.207031,4.909379
1254,-104.980469,18.066406,28.320312,-11.230469,-423.828125,4.913286
1255,7.812500,15.625000,22.949219,52.246094,86.914062,4.917192
1256,137.207031,12.695312,19.042969,72.753906,462.890625,4.921098
1257,96.679688,12.695312,17.578125,11.718750,166.503906,4.925004
1258,-45.898438,20.996094,23.437500,-37.597656,-356.933594,4.928911
1259,-105.468750,25.878906,28.320312,-19.531250,-399.902344,4.932817
1260,-16.601562,28.320312,25.390625,34.179688,66.406250,4.947764
1261,125.000000,36.621094,23.437500,71.777344,513.671875,4.951670
1262,107.421875,33.203125,18.554688,43.457031,277.832031,4.955576
1263,-38.574219,21.972656,23.925781,-4.394531,-280.273438,4.959483
1264,-109.863281,22.460938,26.367188,-18.066406,-424.804688,4.963389
1265,-26.855469,21.484375,22.460938,29.785156,-20.996094,4.967295
1266,123.046875,23.925781,24.414062,83.007812,466.796875,4.971201
1267,124.511719,22.949219,24.414062,44.921875,342.773438,4.975108
1268,-15.625000,16.601562,24.414062,-15.625000,-209.472656,4.979014
1269,-105.468750,32.226562,29.296875,-15.136719,-460.449219,4.982920
1270,-46.875000,27.832031,23.437500,23.437500,-70.312500,4.986826
1271,100.097656,8.300781,9.277344,52.246094,449.218750,4.990733
1272,130.859375,16.113281,18.066406,41.992188,333.007812,4.987360
1273,1.953125,23.925781,29.785156,0.000000,-201.660156,4.991266
1274,-116.210938,19.042969,27.832031,-26.855469,-449.707031,4.995173
1275,-62.988281,19.042969,20.507812,0.976562,-119.628906,4.999079
1276,92.773438,22.460938,22.949219,62.011719,401.855469,5.002985
1277,138.671875,23.925781,27.343750,62.988281,407.714844,5.006891
1278,30.273438,30.273438,29.785156,12.695312,-96.191406,5.010798
1279,-90.820312,39.062500,36.132812,-12.695312,-482.910156,5.014704
1280,-61.523438,30.273438,30.761719,15.625000,-229.980469,5.018610
1281,78.613281,14.648438,18.066406,56.152344,359.375000,5.022516
1282,139.648438,15.625000,16.113281,45.898438,469.726562,5.026423
1283,48.339844,24.902344,24.414062,1.953125,5.371094,5.030329
1284,-90.820312,24.414062,28.808594,-36.621094,-436.035156,5.035481
1285,-77.148438,23.437500,27.832031,-10.742188,-233.886719,5.039387
1286,56.152344,28.320312,24.902344,55.175781,349.121094,5.043293
1287,137.695312,32.226562,26.855469,70.312500,509.765625,5.047200
1288,64.453125,28.320312,32.226562,20.507812,74.707031,5.051106
1289,-84.472656,21.972656,35.156250,-28.320312,-455.566406,5.055012
1290,-94.238281,16.113281,31.250000,-10.253906,-338.867188,5.058918
1291,33.203125,16.113281,25.878906,41.503906,263.671875,5.062825
1292,135.742188,21.484375,22.949219,51.269531,492.187500,5.066731
1293,72.753906,25.390625,23.437500,6.835938,78.125000,5.070637
1294,-76.660156,28.320312,28.320312,-35.644531,-396.484375,5.074543
1295,-99.121094,39.550781,29.785156,-11.230469,-340.332031,5.078450
1296,18.066406,35.156250,22.460938,41.992188,178.222656,5.088888
1297,132.324219,21.484375,19.042969,62.011719,566.894531,5.092794
1298,78.613281,12.207031,21.484375,26.855469,251.953125,5.096700
1299,-72.265625,12.207031,25.878906,-23.437500,-310.546875,5.100607
1300,-114.257812,11.718750,23.437500,-23.925781,-370.605469,5.104513
1301,-7.812500,10.253906,20.507812,27.343750,79.589844,5.108419
1302,146.484375,34.179688,24.414062,74.218750,497.070312,5.112325
1303,120.605469,39.062500,25.390625,37.109375,215.820312,5.116232
1304,-49.804688,18.554688,27.343750,-27.832031,-336.425781,5.120138
1305,-114.746094,11.718750,33.203125,-25.390625,-438.476562,5.124044
1306,-14.160156,11.230469,29.296875,31.738281,41.503906,5.127950
1307,128.417969,14.648438,22.949219,76.171875,536.621094,5.131857
1308,114.257812,13.671875,24.902344,49.316406,319.824219,5.132797
1309,-18.554688,16.113281,30.273438,-4.882812,-238.769531,5.136703
1310,-98.632812,33.691406,40.039062,-16.113281,-429.687500,5.140610
1311,-30.273438,39.550781,37.597656,24.414062,-17.578125,5.144516
1312,118.164062,14.160156,22.460938,62.500000,500.976562,5.148422
1313,128.417969,0.000000,20.019531,43.457031,392.089844,5.152328
1314,-0.488281,12.207031,27.343750,-3.417969,-172.851562,5.156235
1315,-99.121094,20.019531,31.738281,-20.507812,-473.632812,5.160141
1316,-47.363281,20.019531,30.273438,13.183594,-116.699219,5.164047
1317,101.074219,19.042969,24.902344,62.011719,439.453125,5.167953
1318,133.789062,19.531250,27.832031,56.640625,388.671875,5.171860
1319,15.625000,26.367188,35.156250,1.464844,-154.296875,5.175766
1320,-101.074219,26.367188,35.156250,-27.343750,-459.472656,5.166466
1321,-63.964844,23.437500,28.808594,10.253906,-171.875000,5.170372
1322,82.519531,15.136719,25.390625,65.917969,372.070312,5.174279
1323,136.230469,8.789062,24.902344,64.453125,455.078125,5.178185
1324,36.132812,17.089844,29.296875,15.625000,-28.808594,5.182091
1325,-95.703125,27.343750,40.039062,-18.554688,-432.128906,5.185997
1326,-80.078125,30.761719,38.574219,8.789062,-203.613281,5.189904
1327,71.777344,38.085938,30.761719,66.406250,364.746094,5.193810
1328,149.902344,37.597656,32.226562,70.800781,501.953125,5.197716
1329,56.640625,26.855469,32.714844,11.718750,31.738281,5.201622
1330,-92.285156,26.367188,33.691406,-29.296875,-430.664062,5.205529
1331,-90.332031,28.320312,35.644531,9.277344,-300.781250,5.209435
1332,58.593750,29.785156,28.808594,63.964844,288.574219,5.229511
1333,161.132812,30.273438,23.925781,71.289062,527.832031,5.233418
1334,84.472656,30.273438,29.296875,30.761719,84.472656,5.237324
1335,-68.359375,29.296875,33.691406,-19.042969,-412.597656,5.241230
1336,-85.449219,23.925781,37.597656,-0.488281,-354.492188,5.245136
1337,34.179688,19.531250,35.156250,57.617188,177.246094,5.249043
1338,153.320312,22.460938,34.179688,74.707031,496.093750,5.252949
1339,111.816406,31.738281,42.968750,39.550781,121.582031,5.256855
1340,-45.410156,23.925781,36.621094,-19.042969,-385.253906,5.260761
1341,-93.261719,13.183594,25.878906,-19.531250,-353.027344,5.264668
1342,17.089844,9.765625,24.902344,36.621094,149.414062,5.268574
1343,153.320312,18.554688,27.343750,74.218750,509.765625,5.272480
1344,121.582031,21.484375,29.296875,41.503906,215.332031,5.261411
1345,-25.878906,27.343750,32.714844,-8.789062,-325.683594,5.265318
1346,-90.332031,28.808594,31.738281,-6.347656,-432.128906,5.269224
1347,-2.441406,22.460938,23.437500,36.621094,-11.718750,5.273130
1348,141.601562,24.902344,20.019531,76.660156,448.730469,5.277036
1349,123.046875,22.460938,22.949219,48.828125,248.535156,5.280943
1350,-21.484375,28.320312,27.832031,-13.671875,-291.015625,5.284849
1351,-104.003906,21.972656,21.484375,-29.296875,-409.667969,5.288755
1352,-32.226562,12.695312,21.972656,18.554688,18.554688,5.292661
1353,118.652344,11.718750,29.785156,72.265625,501.953125,5.296568
1354,116.699219,10.742188,23.925781,46.875000,346.191406,5.300474
1355,-15.136719,17.578125,25.390625,-9.765625,-202.636719,5.304380
1356,-100.585938,30.761719,34.179688,-23.437500,-467.773438,5.307145
1357,-45.410156,29.785156,28.320312,7.812500,-126.953125,5.311051
1358,95.214844,15.625000,21.972656,53.710938,418.457031,5.314957
1359,116.210938,10.742188,26.367188,44.921875,369.628906,5.318864
1360,-13.183594,13.183594,28.808594,-16.113281,-138.671875,5.322770
1361,-125.488281,14.648438,31.250000,-45.410156,-445.800781,5.326676
1362,-70.312500,16.601562,28.808594,-11.230469,-118.164062,5.330582
1363,80.566406,19.531250,20.996094,43.945312,441.894531,5.334489
1364,130.371094,28.320312,28.320312,38.574219,477.539062,5.338395
1365,16.601562,35.156250,33.691406,-14.160156,-19.531250,5.342301
1366,-110.351562,44.433594,38.574219,-32.714844,-418.945312,5.346207
1367,-83.984375,35.644531,34.179688,-1.953125,-212.402344,5.350114
1368,65.429688,15.625000,25.390625,43.457031,328.613281,5.368924
1369,136.718750,15.625000,25.390625,45.410156,434.082031,5.372830
1370,41.503906,21.972656,33.203125,8.300781,-19.531250,5.376736
1371,-97.656250,31.250000,40.527344,-29.296875,-448.730469,5.380643
1372,-87.402344,30.273438,34.667969,-13.671875,-287.109375,5.384549
1373,59.570312,26.367188,29.785156,46.386719,283.203125,5.388455
1374,145.507812,30.273438,33.203125,55.664062,483.398438,5.392361
1375,75.683594,27.832031,31.250000,4.882812,27.343750,5.396268
1376,-70.312500,22.949219,26.855469,-33.691406,-456.054688,5.400174
1377,-89.843750,19.042969,25.390625,-13.183594,-347.656250,5.404080
1378,45.898438,23.437500,24.902344,44.433594,192.871094,5.407986
1379,158.203125,30.761719,25.878906,69.824219,520.507812,5.411893
1380,92.773438,31.738281,31.738281,30.761719,190.917969,5.411529
1381,-53.710938,34.667969,34.179688,-20.507812,-313.476562,5.415435
1382,-86.425781,31.250000,30.761719,-8.300781,-306.640625,5.419341
1383,22.460938,22.949219,24.902344,34.667969,185.546875,5.423247
1384,152.832031,21.484375,19.531250,63.964844,559.082031,5.427154
1385,119.140625,28.320312,21.484375,41.992188,228.027344,5.431060
1386,-36.621094,27.343750,25.390625,-16.601562,-317.382812,5.434966
1387,-92.773438,31.738281,35.644531,-16.113281,-390.136719,5.438872
1388,9.277344,34.667969,36.621094,36.132812,73.730469,5.442779
1389,141.601562,23.925781,27.343750,75.195312,536.621094,5.446685
1390,110.351562,25.878906,33.691406,46.875000,267.578125,5.450591
1391,-43.945312,26.855469,34.667969,-13.671875,-288.574219,5.454497
1392,-111.328125,20.019531,32.226562,-32.226562,-379.394531,5.447094
1393,-23.925781,16.601562,31.250000,9.765625,65.917969,5.451001
1394,121.093750,26.367188,30.761719,68.847656,513.183594,5.454907
1395,120.117188,29.785156,30.273438,43.945312,336.914062,5.458813
1396,-15.625000,19.531250,29.296875,-20.996094,-205.566406,5.462719
1397,-109.375000,18.066406,32.714844,-31.250000,-453.125000,5.466626
1398,-46.386719,13.183594,28.808594,13.671875,-53.222656,5.470532
1399,115.234375,8.300781,27.343750,68.359375,451.171875,5.474438
1400,127.929688,18.066406,32.226562,62.500000,309.570312,5.478344
1401,-12.207031,19.531250,33.691406,-5.859375,-216.796875,5.482251
1402,-112.792969,9.277344,35.644531,-38.574219,-510.253906,5.486157
1403,-49.804688,11.230469,31.250000,-0.488281,-169.921875,5.490063
1404,100.585938,13.671875,21.484375,47.851562,385.742188,5.506872
1405,135.253906,10.742188,17.578125,37.109375,359.375000,5.510778
1406,26.855469,19.531250,27.832031,-4.394531,-113.281250,5.514685
1407,-91.308594,30.761719,35.644531,-23.437500,-463.867188,5.518591
1408,-62.988281,30.273438,33.203125,6.835938,-242.675781,5.522497
1409,80.078125,15.625000,29.785156,63.476562,346.679688,5.526403
1410,135.253906,9.277344,32.226562,64.941406,429.687500,5.530310
1411,30.761719,20.019531,36.132812,11.230469,-83.984375,5.534216
1412,-107.910156,21.972656,34.179688,-26.855469,-485.351562,5.538122
1413,-87.890625,22.949219,32.714844,1.953125,-257.324219,5.542028
1414,53.710938,24.902344,27.343750,57.128906,306.152344,5.545935
1415,131.347656,32.226562,27.832031,63.964844,448.242188,5.549841
1416,51.269531,39.062500,36.621094,15.136719,12.207031,5.553188
1417,-94.726562,24.902344,37.597656,-33.203125,-437.011719,5.557094
1418,-104.003906,19.531250,32.226562,-10.742188,-296.386719,5.561000
1419,34.179688,24.414062,25.390625,46.386719,205.078125,5.564906
1420,140.136719,25.878906,28.320312,60.546875,449.218750,5.568813
1421,70.312500,22.460938,25.878906,10.253906,66.406250,5.572719
1422,-79.101562,20.996094,29.785156,-31.738281,-441.406250,5.576625
1423,-98.144531,33.691406,39.550781,-4.882812,-354.492188,5.580531
1424,16.601562,25.878906,24.414062,41.015625,180.175781,5.584438
1425,130.859375,12.695312,21.972656,61.523438,486.328125,5.588344
1426,90.820312,20.507812,28.320312,21.972656,143.554688,5.592250
1427,-60.546875,26.367188,27.343750,-28.808594,-338.378906,5.596156
1428,-109.863281,21.972656,31.250000,-19.042969,-350.097656,5.586517
1429,-0.488281,14.160156,26.855469,32.714844,109.375000,5.590423
1430,138.183594,14.648438,19.042969,58.593750,466.308594,5.594330
1431,104.492188,22.460938,25.878906,24.414062,220.214844,5.598236
1432,-45.410156,32.714844,36.621094,-17.578125,-300.781250,5.602142
1433,-109.863281,27.832031,33.691406,-16.113281,-395.507812,5.606048
1434,-24.414062,11.718750,29.785156,26.367188,80.078125,5.609955
1435,123.535156,9.277344,25.390625,62.500000,510.253906,5.613861
1436,114.746094,14.648438,26.367188,31.738281,294.433594,5.617767
1437,-31.250000,20.019531,29.785156,-24.414062,-248.046875,5.621673
1438,-111.328125,22.949219,34.179688,-27.343750,-438.476562,5.625580
1439,-30.273438,20.996094,31.738281,13.671875,-13.183594,5.629486
1440,112.304688,15.136719,19.531250,53.710938,466.308594,5.646557
1441,119.628906,17.578125,21.484375,40.039062,274.902344,5.650463
1442,-7.812500,21.484375,27.343750,-13.671875,-245.605469,5.654369
1443,-105.468750,22.949219,28.320312,-32.226562,-460.937500,5.658276
1444,-47.363281,21.972656,29.296875,14.160156,-137.207031,5.662182
1445,105.468750,18.554688,27.832031,66.406250,398.437500,5.666088
1446,143.554688,22.949219,28.320312,41.503906,362.792969,5.669994
1447,18.066406,25.878906,29.785156,-13.183594,-171.875000,5.673901
1448,-102.539062,28.320312,35.156250,-25.390625,-465.332031,5.677807
1449,-61.523438,26.367188,31.250000,10.742188,-159.667969,5.681713
1450,84.960938,23.437500,20.996094,60.058594,366.210938,5.685619
1451,141.113281,31.250000,30.273438,62.500000,430.175781,5.689526
1452,37.109375,34.667969,35.644531,8.789062,-65.429688,5.688301
1453,-93.261719,30.273438,34.179688,-32.714844,-456.542969,5.692208
1454,-65.917969,22.949219,35.156250,2.929688,-224.609375,5.696114
1455,75.683594,23.925781,31.250000,65.429688,339.843750,5.700020
1456,146.484375,33.691406,30.761719,65.917969,494.628906,5.703926
1457,63.476562,35.156250,34.179688,17.578125,-1.464844,5.707833
1458,-74.218750,33.203125,36.132812,-15.136719,-447.265625,5.711739
1459,-74.707031,36.621094,31.738281,-2.441406,-255.371094,5.715645
1460,58.105469,31.738281,25.878906,49.804688,277.832031,5.719551
1461,153.808594,25.878906,24.902344,66.894531,481.933594,5.723458
1462,76.171875,33.203125,27.832031,17.578125,97.656250,5.727364
1463,-68.847656,38.574219,32.714844,-25.878906,-369.140625,5.731270
1464,-90.820312,28.808594,31.250000,-9.277344,-325.195312,5.729129
1465,29.785156,28.320312,28.808594,54.687500,195.312500,5.733035
1466,153.320312,41.992188,25.878906,76.660156,525.878906,5.736942
1467,101.562500,38.574219,25.390625,24.902344,210.937500,5.740848
1468,-51.269531,27.343750,25.390625,-27.832031,-319.824219,5.744754
1469,-87.402344,24.414062,26.855469,-15.625000,-361.328125,5.748660
1470,13.183594,13.671875,22.460938,37.597656,126.464844,5.752567
1471,144.042969,18.066406,21.972656,69.335938,504.394531,5.756473
1472,109.375000,25.878906,23.437500,32.714844,187.500000,5.760379
1473,-45.410156,21.484375,26.367188,-24.414062,-339.355469,5.764285
1474,-90.332031,27.832031,29.296875,-20.507812,-409.179688,5.768192
1475,3.417969,22.460938,26.367188,24.414062,53.710938,5.772098
1476,130.371094,11.230469,25.390625,64.453125,477.050781,5.786915
1477,108.886719,14.160156,23.925781,40.039062,272.460938,5.790821
1478,-35.644531,23.925781,30.273438,-14.160156,-244.628906,5.794728
1479,-107.910156,31.738281,39.550781,-18.554688,-417.968750,5.798634
1480,-25.878906,30.273438,33.691406,27.343750,-23.925781,5.802540
1481,117.675781,27.832031,26.855469,69.824219,464.843750,5.806446
1482,118.164062,24.902344,27.832031,37.109375,314.941406,5.810353
1483,-16.113281,26.855469,31.250000,-14.160156,-202.148438,5.814259
1484,-105.957031,39.062500,41.503906,-17.578125,-395.996094,5.818165
1485,-41.992188,32.714844,38.085938,23.925781,-23.925781,5.822071
1486,109.863281,26.367188,28.808594,74.218750,500.000000,5.825978
1487,133.300781,40.527344,32.226562,57.617188,410.644531,5.829884
1488,-1.464844,32.226562,27.832031,-6.835938,-125.000000,5.837139
1489,-111.328125,21.484375,26.855469,-29.785156,-449.707031,5.841045
1490,-63.964844,15.136719,28.320312,11.230469,-145.019531,5.844952
1491,86.914062,12.695312,27.832031,68.359375,414.550781,5.848858
1492,136.718750,19.042969,25.878906,61.523438,413.574219,5.852764
1493,34.667969,21.484375,30.761719,4.882812,-98.144531,5.856670
1494,-87.890625,29.296875,37.109375,-24.902344,-445.800781,5.860577
1495,-66.894531,25.878906,30.273438,6.835938,-193.359375,5.864483
1496,79.101562,16.601562,20.507812,62.011719,366.699219,5.868389
1497,140.625000,19.042969,25.390625,66.406250,443.847656,5.872295
1498,37.109375,16.113281,28.808594,10.742188,-32.714844,5.876202
1499,-95.703125,14.160156,26.367188,-32.226562,-425.292969,5.880108
1500,-78.613281,14.160156,31.250000,-3.906250,-232.910156,5.868421
1501,55.175781,6.835938,28.808594,56.152344,315.917969,5.872328
1502,137.695312,12.695312,26.855469,67.871094,490.722656,5.876234
1503,57.128906,19.042969,30.273438,20.507812,42.968750,5.880140
1504,-90.820312,12.695312,30.273438,-23.437500,-434.082031,5.884046
1505,-92.285156,10.253906,25.878906,-4.394531,-303.710938,5.887953
1506,37.109375,6.835938,20.996094,50.292969,262.207031,5.891859
1507,141.601562,6.835938,23.925781,69.335938,541.015625,5.895765
1508,79.101562,11.230469,25.878906,18.066406,88.378906,5.899671
1509,-74.707031,13.671875,27.343750,-32.226562,-385.742188,5.903578
1510,-92.285156,26.855469,32.226562,-11.230469,-306.640625,5.907484
1511,30.273438,27.343750,25.390625,45.898438,166.992188,5.911390
1512,141.113281,8.300781,17.089844,61.523438,519.531250,5.926636
1513,93.261719,13.183594,19.531250,20.996094,235.839844,5.930542
1514,-52.734375,24.414062,23.925781,-21.484375,-310.058594,5.934449
1515,-104.492188,14.648438,26.367188,-20.507812,-378.417969,5.938355
1516,0.976562,17.089844,27.343750,31.250000,104.980469,5.942261
1517,141.113281,24.414062,23.925781,70.312500,534.179688,5.946167
1518,111.328125,18.066406,18.066406,21.484375,285.644531,5.950074
1519,-40.527344,17.089844,23.437500,-36.132812,-280.273438,5.953980
1520,-102.539062,21.972656,31.738281,-23.925781,-465.332031,5.957886
1521,-10.742188,32.714844,32.714844,27.832031,-27.343750,5.961792
1522,128.417969,29.785156,27.343750,69.335938,514.160156,5.965699
1523,121.093750,17.578125,22.460938,38.574219,348.144531,5.969605
1524,-15.625000,22.949219,27.343750,-12.207031,-238.281250,5.975055
1525,-105.957031,24.902344,32.226562,-19.531250,-433.593750,5.978961
1526,-27.343750,21.484375,27.832031,19.042969,-38.085938,5.982867
1527,125.976562,18.066406,24.902344,68.359375,451.171875,5.986773
1528,137.207031,20.019531,27.832031,52.246094,354.980469,5.990680
1529,6.347656,24.902344,32.714844,-1.953125,-194.824219,5.994586
1530,-100.097656,21.484375,33.691406,-24.414062,-458.984375,5.998492
1531,-49.316406,21.972656,29.296875,16.601562,-99.609375,6.002398
1532,100.097656,29.785156,20.019531,70.800781,428.710938,6.006305
1533,139.160156,34.179688,24.414062,58.593750,400.878906,6.010211
1534,32.226562,42.968750,33.691406,2.929688,-113.281250,6.014117
1535,-92.773438,37.597656,30.273438,-28.320312,-452.148438,6.018023
1536,-55.175781,34.179688,30.273438,8.789062,-166.015625,6.005851
1537,97.656250,40.039062,29.296875,66.406250,399.414062,6.009757
1538,136.230469,28.808594,22.949219,56.640625,449.218750,6.013663
1539,41.992188,30.273438,27.343750,3.906250,-51.757812,6.017570
1540,-79.589844,41.503906,36.132812,-20.507812,-453.125000,6.021476
1541,-75.683594,35.644531,31.250000,7.324219,-250.976562,6.025382
1542,60.546875,28.808594,21.484375,52.246094,321.289062,6.029288
1543,143.066406,28.808594,22.949219,56.640625,467.285156,6.033195
1544,62.988281,30.761719,27.832031,15.136719,3.906250,6.037101
1545,-82.519531,33.203125,31.738281,-21.484375,-406.250000,6.041007
1546,-87.402344,25.390625,28.320312,-0.976562,-240.722656,6.044913
1547,53.222656,20.507812,19.042969,52.734375,289.062500,6.048820
1548,150.878906,29.296875,21.972656,63.964844,546.875000,6.067405
1549,84.472656,39.550781,26.367188,22.949219,145.019531,6.071311
1550,-68.359375,32.714844,24.902344,-23.925781,-363.769531,6.075217
1551,-101.074219,26.855469,27.343750,-15.136719,-286.132812,6.079123
1552,23.925781,27.832031,28.320312,46.386719,239.257812,6.083030
1553,145.507812,31.250000,25.390625,71.777344,559.082031,6.086936
1554,93.750000,26.855469,22.460938,17.089844,177.734375,6.090842
1555,-61.035156,18.066406,20.996094,-38.085938,-384.765625,6.094748
1556,-102.050781,18.554688,20.996094,-27.343750,-410.644531,6.098655
1557,7.812500,14.160156,16.601562,26.855469,86.914062,6.102561
1558,141.113281,23.925781,14.648438,54.687500,477.539062,6.106467
1559,107.421875,27.832031,19.042969,9.765625,188.476562,6.110373
1560,-41.992188,23.437500,25.390625,-36.621094,-351.074219,6.106931
1561,-107.910156,21.972656,26.855469,-28.320312,-421.386719,6.110837
1562,-26.367188,11.230469,24.902344,18.066406,45.898438,6.114743
1563,122.558594,13.183594,23.437500,59.082031,487.304688,6.118650
1564,113.769531,20.996094,21.972656,21.484375,269.042969,6.122556
1565,-36.132812,20.507812,30.273438,-31.250000,-314.941406,6.126462
1566,-117.675781,19.531250,33.203125,-33.691406,-465.820312,6.130368
1567,-40.039062,13.671875,25.390625,5.371094,-29.785156,6.134275
1568,112.792969,9.765625,22.460938,51.757812,469.726562,6.138181
1569,123.046875,17.578125,27.832031,32.226562,275.390625,6.142087
1570,-15.136719,19.042969,28.320312,-30.273438,-275.878906,6.145993
1571,-110.839844,16.601562,25.878906,-41.992188,-468.261719,6.149900
1572,-44.433594,20.507812,23.437500,2.441406,-105.468750,6.149604
1573,103.515625,22.460938,19.531250,44.433594,432.617188,6.153510
1574,127.441406,20.996094,22.949219,37.109375,377.441406,6.157417
1575,16.601562,25.390625,32.714844,-5.371094,-129.394531,6.161323
1576,-94.726562,26.855469,36.132812,-31.250000,-433.593750,6.165229
1577,-62.011719,20.507812,31.250000,9.277344,-170.898438,6.169135
1578,90.820312,20.507812,26.855469,65.917969,353.027344,6.173042
1579,145.019531,27.832031,29.296875,58.105469,348.632812,6.176948
1580,28.320312,20.019531,28.808594,-0.976562,-147.949219,6.180854
1581,-107.421875,16.601562,26.367188,-39.062500,-497.558594,6.184760
1582,-78.613281,19.531250,21.972656,-10.253906,-263.183594,6.188667
1583,79.101562,22.460938,24.902344,48.828125,331.054688,6.192573
1584,141.601562,26.855469,30.761719,61.523438,455.078125,6.209264
1585,43.945312,26.855469,33.203125,18.066406,-41.503906,6.213170
1586,-87.890625,33.691406,39.062500,-20.996094,-486.328125,6.217076
1587,-90.820312,23.437500,33.203125,-5.371094,-319.335938,6.220983
1588,43.945312,7.324219,22.460938,40.527344,226.562500,6.224889
1589,140.625000,11.718750,23.437500,58.593750,443.847656,6.228795
1590,68.359375,18.554688,30.273438,14.160156,-7.324219,6.232701
1591,-69.335938,25.878906,30.761719,-35.644531,-481.445312,6.236608
1592,-79.101562,36.132812,32.714844,-8.789062,-356.445312,6.240514
1593,44.433594,36.132812,24.414062,42.480469,160.644531,6.244420
1594,144.042969,24.902344,16.113281,59.570312,493.164062,6.248326
1595,89.843750,24.902344,27.832031,24.414062,190.429688,6.252233
1596,-62.988281,16.601562,30.273438,-31.250000,-336.914062,6.248983
1597,-106.933594,9.765625,22.949219,-28.808594,-346.679688,6.252889
1598,13.183594,15.625000,22.949219,25.390625,122.070312,6.256795
1599,145.507812,20.507812,27.343750,65.917969,495.605469,6.260702
1600,106.445312,24.414062,29.296875,26.367188,217.285156,6.264608
1601,-42.480469,25.390625,32.714844,-29.785156,-356.933594,6.268514
1602,-94.238281,26.855469,39.062500,-20.507812,-420.898438,6.272420
1603,0.000000,27.343750,32.226562,25.390625,73.730469,6.276327
1604,127.929688,16.601562,19.531250,56.152344,483.886719,6.280233
1605,103.515625,13.671875,22.460938,27.343750,210.449219,6.284139
1606,-51.269531,21.972656,30.761719,-20.019531,-318.359375,6.288045
1607,-126.953125,19.042969,30.761719,-21.972656,-415.039062,6.291952
1608,-32.714844,26.855469,31.250000,25.390625,8.300781,6.286225
1609,112.792969,28.808594,30.761719,67.871094,451.171875,6.290131
1610,108.886719,21.484375,29.785156,39.062500,283.203125,6.294037
1611,-22.460938,32.226562,35.644531,-17.089844,-257.324219,6.297943
1612,-114.257812,32.714844,35.156250,-30.273438,-472.167969,6.301850
1613,-51.269531,20.507812,27.343750,5.371094,-71.777344,6.305756
1614,107.421875,26.367188,26.855469,55.175781,436.523438,6.309662
1615,126.464844,22.949219,29.785156,38.574219,315.429688,6.313568
1616,-4.882812,17.089844,34.179688,-12.695312,-209.472656,6.317475
1617,-113.281250,24.414062,35.644531,-27.343750,-479.003906,6.321381
1618,-63.476562,21.484375,30.273438,10.253906,-166.992188,6.325287
1619,90.332031,24.902344,28.320312,64.453125,406.250000,6.329193
1620,140.625000,35.156250,28.808594,57.617188,467.773438,6.358409
1621,27.343750,38.085938,30.761719,3.417969,-71.777344,6.362315
1622,-109.375000,32.226562,34.179688,-31.738281,-483.886719,6.366222
1623,-78.125000,21.972656,33.691406,4.394531,-215.332031,6.370128
1624,77.148438,17.578125,34.179688,67.382812,348.632812,6.374034
1625,141.113281,21.484375,34.179688,59.570312,475.585938,6.377940
1626,43.945312,25.390625,34.667969,2.929688,13.183594,6.381847
1627,-96.191406,22.949219,36.132812,-29.785156,-425.781250,6.385753
1628,-91.308594,24.414062,32.226562,-3.417969,-203.125000,6.389659
1629,61.035156,33.203125,31.250000,54.687500,319.335938,6.393565
1630,144.042969,22.460938,26.855469,55.175781,467.285156,6.397472
1631,61.523438,16.113281,26.367188,3.906250,85.937500,6.401378
1632,-75.683594,21.484375,29.296875,-29.296875,-390.625000,6.386518
1633,-86.914062,18.554688,29.785156,-1.953125,-274.902344,6.390425
1634,43.457031,15.625000,21.484375,44.921875,267.089844,6.394331
1635,158.203125,25.390625,17.578125,55.664062,518.554688,6.398237
1636,96.191406,28.808594,27.343750,25.878906,130.859375,6.402143
1637,-45.410156,14.648438,45.410156,7.324219,-413.574219,6.406050
1638,-50.781250,20.996094,52.246094,45.898438,-363.281250,6.409956
1639,52.734375,32.226562,28.808594,70.800781,145.019531,6.413862
1640,154.296875,24.902344,17.089844,74.218750,482.910156,6.417768
1641,109.863281,28.320312,22.949219,39.550781,181.640625,6.421675
1642,-42.968750,32.226562,24.902344,-18.554688,-347.167969,6.425581
1643,-80.078125,46.875000,31.250000,-5.371094,-384.277344,6.429487
1644,20.507812,57.617188,21.972656,42.480469,97.167969,6.432077
1645,160.644531,52.246094,11.718750,63.964844,453.613281,6.435983
1646,133.300781,45.410156,10.742188,26.855469,193.847656,6.439890
1647,-26.855469,36.621094,11.230469,-29.296875,-288.085938,6.443796
1648,-70.800781,46.386719,14.648438,-25.878906,-394.042969,6.447702
1649,20.507812,52.734375,12.207031,20.996094,3.906250,6.451608
1650,150.878906,50.292969,11.718750,56.640625,436.035156,6.455515
1651,143.554688,59.570312,14.160156,31.250000,277.343750,6.459421
1652,6.347656,54.199219,15.625000,-23.437500,-248.535156,6.463327
1653,-76.171875,46.875000,21.484375,-29.785156,-449.218750,6.467233
1654,-1.953125,52.246094,21.972656,16.601562,-48.339844,6.471140
1655,137.207031,45.410156,15.136719,62.500000,453.125000,6.475046
1656,142.578125,37.597656,14.160156,46.875000,348.144531,6.490691
1657,14.648438,41.503906,18.554688,-9.765625,-174.804688,6.494597
1658,-89.843750,51.269531,21.972656,-30.273438,-437.988281,6.498503
1659,-35.644531,46.386719,20.507812,13.671875,-90.820312,6.502410
1660,114.257812,37.597656,18.554688,66.894531,413.085938,6.506316
1661,145.507812,33.691406,20.507812,55.175781,354.492188,6.510222
1662,35.156250,38.574219,23.437500,1.953125,-146.972656,6.514128
1663,-83.984375,41.503906,23.437500,-27.343750,-470.703125,6.518035
1664,-51.757812,33.691406,21.972656,7.812500,-186.035156,6.521941
1665,95.214844,25.390625,14.160156,61.035156,391.113281,6.525847
1666,147.460938,20.019531,11.230469,51.269531,444.824219,6.529753
1667,44.433594,20.019531,19.042969,-3.417969,-46.386719,6.533660
1668,-82.519531,26.855469,25.878906,-31.738281,-451.660156,6.530763
1669,-56.640625,40.039062,30.761719,6.347656,-220.214844,6.534669
1670,88.867188,41.992188,27.343750,65.429688,348.632812,6.538576
1671,159.179688,28.808594,20.019531,66.894531,467.773438,6.542482
1672,71.777344,20.019531,23.925781,18.066406,-0.976562,6.546388
1673,-71.289062,20.019531,31.250000,-22.460938,-460.937500,6.550294
1674,-70.312500,22.949219,32.226562,1.953125,-305.175781,6.554201
1675,70.800781,28.808594,26.855469,59.570312,259.765625,6.558107
1676,163.085938,33.691406,21.484375,70.312500,485.351562,6.562013
1677,99.609375,43.457031,27.343750,20.507812,55.664062,6.565919
1678,-59.570312,29.785156,26.367188,-29.785156,-426.269531,6.569826
1679,-86.425781,18.066406,25.390625,-7.812500,-294.433594,6.573732
1680,40.527344,25.878906,27.343750,53.222656,239.746094,6.584759
1681,151.855469,28.808594,22.949219,75.683594,523.925781,6.588665
1682,98.632812,33.203125,21.972656,33.691406,163.574219,6.592571
1683,-51.269531,38.085938,32.226562,-11.230469,-361.816406,6.596478
1684,-89.355469,37.109375,33.691406,-2.441406,-354.492188,6.600384
1685,21.972656,32.226562,25.390625,47.363281,110.839844,6.604290
1686,150.390625,37.597656,24.414062,79.589844,479.003906,6.608196
1687,112.304688,31.738281,22.949219,29.296875,201.660156,6.612103
1688,-48.828125,20.996094,20.996094,-33.691406,-325.195312,6.616009
1689,-109.375000,32.226562,28.320312,-23.437500,-409.667969,6.619915
1690,-10.742188,37.597656,25.878906,32.226562,54.199219,6.623821
1691,125.000000,29.785156,19.531250,70.312500,521.972656,6.627728
1692,114.257812,32.226562,25.390625,42.968750,282.714844,6.637286
1693,-23.925781,41.015625,30.761719,-9.765625,-236.816406,6.641192
1694,-103.515625,34.667969,28.320312,-23.925781,-353.027344,6.645099
1695,-26.367188,21.972656,26.367188,22.460938,40.527344,6.649005
1696,125.488281,22.460938,25.878906,73.730469,507.812500,6.652911
1697,123.535156,19.042969,24.414062,49.804688,353.515625,6.656817
1698,-2.929688,26.367188,27.832031,-7.324219,-195.312500,6.660724
1699,-92.285156,33.203125,27.832031,-24.414062,-446.777344,6.664630
1700,-31.250000,25.390625,25.390625,20.507812,-58.593750,6.668536
1701,119.628906,23.925781,22.949219,78.613281,477.050781,6.672442
1702,140.136719,29.296875,20.996094,60.058594,401.367188,6.676349
1703,16.601562,21.484375,23.925781,-3.417969,-126.464844,6.680255
1704,-96.679688,20.507812,31.250000,-22.949219,-452.636719,6.669682
1705,-48.339844,22.460938,20.507812,13.671875,-122.558594,6.673588
1706,114.746094,20.507812,9.277344,76.660156,451.660156,6.677494
1707,164.062500,30.273438,25.390625,78.613281,437.988281,6.681400
1708,36.621094,24.414062,31.250000,8.789062,-53.710938,6.685307
1709,-102.050781,14.648438,28.320312,-28.320312,-436.523438,6.689213
1710,-75.683594,14.160156,28.808594,10.253906,-219.238281,6.693119
1711,68.847656,10.742188,25.390625,67.382812,341.796875,6.697025
1712,143.554688,25.390625,34.179688,70.312500,444.335938,6.700932
1713,49.316406,21.484375,34.667969,14.648438,-10.253906,6.704838
1714,-103.515625,15.625000,31.250000,-21.972656,-421.386719,6.708744
1715,-101.074219,22.949219,29.785156,0.000000,-227.539062,6.712650
1716,35.156250,6.835938,18.066406,36.621094,300.781250,6.727064
1717,122.558594,0.488281,17.089844,50.781250,471.191406,6.730970
1718,55.175781,16.601562,29.296875,17.089844,49.316406,6.734877
1719,-84.960938,27.832031,36.621094,-21.972656,-426.269531,6.738783
1720,-105.468750,14.648438,27.343750,-11.718750,-302.734375,6.742689
1721,20.996094,7.812500,19.042969,40.039062,246.093750,6.746595
1722,132.324219,12.207031,20.996094,61.523438,505.371094,6.750502
1723,72.265625,17.089844,26.855469,12.207031,130.371094,6.754408
1724,-74.707031,27.343750,30.761719,-38.085938,-379.394531,6.758314
1725,-102.050781,35.644531,36.621094,-17.578125,-342.773438,6.762220
1726,1.464844,18.066406,27.343750,27.343750,183.105469,6.766127
1727,122.070312,5.859375,20.996094,56.640625,558.105469,6.770033
1728,86.914062,24.902344,26.367188,22.949219,263.183594,6.766478
1729,-67.871094,29.785156,25.878906,-41.015625,-279.785156,6.770384
1730,-119.140625,22.949219,30.273438,-31.738281,-322.753906,6.774290
1731,-7.324219,26.855469,34.667969,30.273438,158.203125,6.778196
1732,126.953125,30.273438,31.738281,71.289062,558.105469,6.782103
1733,116.699219,36.621094,29.785156,35.156250,312.011719,6.786009
1734,-22.460938,41.992188,33.691406,-18.554688,-236.328125,6.789915
1735,-117.675781,27.832031,33.691406,-26.855469,-393.554688,6.793821
1736,-44.921875,11.718750,26.855469,11.230469,17.089844,6.797728
1737,101.562500,11.718750,22.949219,54.199219,496.093750,6.801634
1738,112.792969,28.808594,31.738281,27.832031,297.363281,6.805540
1739,-20.996094,31.738281,38.085938,-27.832031,-287.597656,6.809446
1740,-119.140625,21.484375,31.738281,-43.457031,-501.464844,6.806832
1741,-49.804688,24.414062,28.320312,1.953125,-102.050781,6.810738
1742,101.562500,20.996094,21.484375,44.921875,440.429688,6.814644
1743,117.675781,16.601562,19.531250,30.273438,379.882812,6.818551
1744,-11.718750,19.042969,27.343750,-11.230469,-161.132812,6.822457
1745,-112.792969,28.808594,35.156250,-41.503906,-481.445312,6.826363
1746,-55.175781,30.761719,37.109375,-11.718750,-151.855469,6.830269
1747,87.890625,23.925781,23.437500,35.644531,379.394531,6.834176
1748,118.652344,24.902344,17.089844,26.855469,354.492188,6.838082
1749,4.394531,13.671875,20.996094,-35.156250,-154.785156,6.841988
1750,-117.675781,12.695312,24.902344,-67.382812,-540.527344,6.845894
1751,-97.656250,18.066406,25.390625,-32.226562,-291.015625,6.849801
1752,56.640625,18.066406,23.925781,37.597656,285.644531,6.869202
1753,140.625000,24.902344,25.390625,43.945312,415.039062,6.873108
1754,35.156250,33.203125,24.902344,-13.671875,-20.996094,6.877014
1755,-104.980469,20.996094,21.484375,-49.316406,-452.148438,6.880920
1756,-87.402344,4.394531,22.460938,-20.996094,-249.511719,6.884827
1757,54.687500,5.371094,26.367188,50.781250,323.242188,6.888733
1758,140.136719,10.253906,26.855469,67.871094,505.859375,6.892639
1759,53.222656,16.113281,28.320312,16.113281,91.796875,6.896545
1760,-88.867188,25.390625,33.691406,-32.714844,-395.019531,6.900452
1761,-89.355469,25.390625,27.832031,-19.042969,-272.460938,6.904358
1762,32.226562,12.207031,20.507812,46.386719,232.421875,6.908264
1763,134.277344,12.207031,23.925781,71.777344,521.484375,6.912170
1764,72.753906,21.484375,23.925781,19.042969,147.949219,6.924585
1765,-74.707031,31.250000,30.761719,-34.667969,-413.085938,6.928492
1766,-96.679688,38.085938,33.691406,-10.742188,-364.746094,6.932398
1767,19.531250,28.808594,26.367188,46.875000,137.207031,6.936304
1768,147.460938,30.273438,26.855469,74.218750,464.843750,6.940210
1769,99.609375,31.250000,22.460938,31.738281,161.132812,6.944117
1770,-51.269531,30.761719,21.484375,-24.902344,-378.417969,6.948023
1771,-94.726562,35.644531,27.343750,-16.601562,-430.664062,6.951929
1772,-3.417969,32.226562,21.484375,36.621094,84.472656,6.955835
1773,132.324219,28.808594,16.113281,75.195312,494.140625,6.959742
1774,116.699219,27.343750,26.855469,42.480469,174.316406,6.963648
1775,-32.226562,31.738281,34.667969,-5.859375,-375.976562,6.967554
1776,-92.773438,37.597656,27.832031,-8.300781,-457.031250,6.940661
1777,-11.230469,35.156250,22.460938,33.691406,2.929688,6.944567
1778,126.464844,25.390625,21.484375,80.078125,493.164062,6.948474
1779,118.652344,28.808594,26.855469,52.246094,285.644531,6.952380
1780,-18.554688,34.179688,34.179688,-4.394531,-261.718750,6.956286
1781,-97.656250,31.250000,30.273438,-6.835938,-459.960938,6.960192
1782,-28.320312,32.714844,29.296875,25.390625,-37.597656,6.964099
1783,111.328125,36.132812,29.785156,56.640625,490.234375,6.968005
1784,115.722656,36.621094,41.015625,38.085938,354.003906,6.971911
1785,-6.347656,29.296875,42.480469,2.441406,-203.613281,6.975817
1786,-105.468750,20.996094,36.132812,-9.277344,-489.257812,6.979724
1787,-59.570312,19.042969,29.785156,12.207031,-130.859375,6.983630
1788,96.191406,20.996094,28.808594,65.429688,426.757812,7.011748
1789,133.300781,21.484375,31.250000,58.105469,404.785156,7.015654
1790,19.531250,33.203125,33.691406,3.906250,-113.281250,7.019560
1791,-93.261719,42.480469,36.132812,-18.066406,-445.800781,7.023467
1792,-74.218750,24.414062,23.925781,-1.464844,-161.132812,7.027373
1793,68.847656,10.253906,19.042969,49.804688,388.671875,7.031279
1794,135.253906,15.625000,23.437500,51.269531,450.195312,7.035185
1795,22.460938,17.089844,26.855469,-2.929688,-41.992188,7.039092
1796,-114.746094,16.601562,28.808594,-38.085938,-451.660156,7.042998
1797,-89.843750,25.390625,33.203125,1.953125,-212.890625,7.046904
1798,53.710938,24.414062,27.343750,67.382812,343.750000,7.050810
1799,135.253906,23.437500,28.808594,78.613281,483.886719,7.054717
1800,58.593750,27.832031,35.644531,25.878906,52.734375,7.048529
1801,-85.937500,22.949219,35.644531,-19.531250,-412.109375,7.052435
1802,-88.378906,17.578125,32.714844,-0.976562,-276.855469,7.056341
1803,49.316406,20.996094,25.390625,45.898438,245.117188,7.060248
1804,150.390625,22.949219,20.996094,53.222656,489.257812,7.064154
1805,77.636719,21.484375,29.296875,20.996094,123.535156,7.068060
1806,-70.800781,24.414062,35.644531,-8.300781,-391.601562,7.071966
1807,-95.214844,23.925781,28.808594,-1.953125,-336.425781,7.075873
1808,17.089844,21.484375,25.390625,50.781250,184.082031,7.079779
1809,133.789062,19.042969,29.785156,75.195312,506.835938,7.083685
1810,87.890625,23.437500,32.714844,36.621094,172.363281,7.087591
1811,-64.453125,23.437500,34.667969,-15.136719,-349.609375,7.091498
1812,-111.816406,21.484375,34.667969,-7.324219,-387.695312,7.089711
1813,-11.230469,24.902344,25.878906,44.433594,113.769531,7.093617
1814,131.835938,22.460938,25.390625,75.683594,541.992188,7.097524
1815,106.933594,21.484375,26.855469,40.039062,261.718750,7.101430
1816,-41.503906,33.203125,30.761719,-15.136719,-337.402344,7.105336
1817,-116.699219,24.902344,26.855469,-20.996094,-444.824219,7.109242
1818,-40.039062,11.718750,17.578125,24.414062,6.347656,7.113149
1819,117.675781,14.160156,22.949219,67.871094,449.707031,7.117055
1820,112.304688,20.019531,29.785156,35.644531,271.972656,7.120961
1821,-33.691406,30.761719,37.597656,-6.347656,-254.394531,7.124867
1822,-115.722656,32.714844,33.691406,-20.996094,-438.964844,7.128774
1823,-39.062500,27.832031,27.343750,18.554688,-51.269531,7.132680
1824,106.933594,24.414062,25.390625,69.824219,474.121094,7.149250
1825,106.933594,19.531250,20.996094,33.203125,360.839844,7.153156
