,TP9,AF7,AF8,TP10,Right AUX,timestamps
0,-171.386719,37.597656,27.832031,-26.367188,-82.519531,0.000000
1,-338.378906,45.410156,31.250000,23.925781,26.367188,0.003906
2,-1.953125,37.597656,24.414062,66.894531,122.558594,0.007812
3,379.882812,29.785156,16.601562,62.500000,124.511719,0.011719
4,332.031250,31.250000,17.089844,8.300781,52.246094,0.015625
5,-113.281250,35.644531,21.484375,-17.578125,-45.898438,0.019531
6,-349.609375,35.644531,26.367188,20.507812,-27.832031,0.023438
7,-64.941406,22.949219,26.367188,62.988281,47.363281,0.027344
8,350.585938,12.207031,20.507812,66.894531,58.105469,0.031250
9,360.351562,20.996094,18.554688,23.437500,21.484375,0.035156
10,-70.312500,34.179688,28.808594,-9.765625,-38.574219,0.039062
11,-0.488281,-0.488281,-0.488281,-0.488281,-0.488281,0.042969
12,0.976562,-0.488281,-0.488281,0.000000,-1.464844,0.029271
13,5.371094,0.488281,0.976562,0.000000,10.253906,0.033178
14,-29.296875,-1.953125,-2.441406,-1.953125,-16.601562,0.037084
15,126.464844,10.253906,12.695312,8.789062,79.589844,0.040990
16,66.406250,30.273438,34.667969,0.976562,334.472656,0.044896
17,-328.613281,31.250000,38.085938,2.929688,387.207031,0.048803
18,-235.839844,24.902344,34.667969,49.804688,440.429688,0.052709
19,225.097656,19.042969,23.437500,77.148438,533.203125,0.056615
20,416.015625,20.507812,24.902344,48.339844,447.265625,0.060521
21,106.445312,33.691406,30.761719,-7.812500,324.707031,0.064428
22,-291.015625,41.992188,37.109375,-6.835938,284.667969,0.068334
23,-259.277344,31.738281,41.992188,51.757812,388.183594,0.072240
24,170.898438,20.019531,28.808594,78.125000,467.773438,0.071585
25,405.273438,19.531250,20.507812,47.363281,353.515625,0.075491
26,148.925781,27.343750,28.320312,-6.835938,220.703125,0.079398
27,-274.414062,38.085938,37.109375,-17.578125,205.078125,0.083304
28,-309.082031,34.667969,36.621094,31.738281,302.734375,0.087210
29,110.839844,24.414062,31.250000,79.101562,347.167969,0.091116
30,406.738281,19.531250,24.902344,60.058594,270.019531,0.095023
31,210.449219,22.460938,26.855469,0.000000,156.250000,0.098929
32,-231.445312,30.273438,36.132812,-22.460938,98.632812,0.102835
33,-338.378906,30.273438,38.085938,19.042969,145.507812,0.106741
34,39.550781,22.949219,27.832031,72.265625,244.140625,0.110648
35,376.464844,18.554688,22.949219,54.687500,250.976562,0.114554
36,254.394531,25.390625,26.367188,-1.953125,125.000000,0.129346
37,-182.617188,39.062500,33.691406,-17.578125,42.480469,0.133252
38,-354.980469,42.480469,40.039062,19.531250,91.796875,0.137158
39,-24.414062,34.667969,32.226562,70.312500,170.898438,0.141065
40,359.863281,26.855469,23.437500,67.382812,156.738281,0.144971
41,308.593750,28.320312,25.878906,15.625000,57.617188,0.148877
42,-129.882812,36.132812,35.156250,-16.113281,13.183594,0.152783
43,-361.328125,35.644531,37.597656,-0.488281,57.128906,0.156690
44,-83.496094,24.902344,32.714844,49.804688,140.625000,0.160596
45,325.195312,19.531250,28.808594,69.335938,168.457031,0.164502
46,337.890625,25.390625,32.226562,29.296875,99.121094,0.168408
47,-69.335938,32.226562,40.039062,-9.765625,25.390625,0.172315
48,-354.003906,35.644531,45.898438,16.113281,84.960938,0.169449
49,-148.437500,26.855469,38.574219,67.871094,170.410156,0.173355
50,284.179688,17.578125,30.761719,79.101562,133.789062,0.177261
51,371.582031,18.554688,29.296875,39.062500,55.664062,0.181167
52,-9.765625,22.949219,34.667969,-11.230469,-8.300781,0.185074
53,-347.167969,33.203125,45.898438,1.464844,-16.601562,0.188980
54,-196.777344,32.226562,39.550781,50.781250,94.726562,0.192886
55,250.976562,19.042969,24.902344,65.429688,160.156250,0.196792
56,408.203125,19.531250,23.437500,28.320312,85.449219,0.200699
57,73.242188,25.878906,27.832031,-31.250000,-9.277344,0.204605
58,-307.128906,32.226562,38.085938,-16.601562,16.113281,0.208511
59,-226.562500,32.226562,38.574219,40.527344,110.839844,0.212417
60,221.679688,20.996094,29.296875,66.894531,149.902344,0.229521
61,432.128906,21.972656,26.855469,40.039062,100.585938,0.233428
62,143.554688,27.343750,27.343750,-14.160156,8.789062,0.237334
63,-270.507812,31.250000,33.691406,-16.601562,20.996094,0.241240
64,-266.601562,33.691406,34.179688,41.503906,105.957031,0.245146
65,160.644531,25.390625,26.367188,85.937500,141.113281,0.249053
66,410.156250,19.531250,20.019531,42.480469,108.886719,0.252959
67,164.550781,25.390625,22.949219,-14.160156,15.625000,0.256865
68,-268.554688,33.691406,33.203125,-6.347656,-40.527344,0.260771
69,-317.871094,37.597656,36.621094,47.851562,17.578125,0.264678
70,74.707031,29.785156,27.343750,84.472656,100.585938,0.268584
71,376.464844,25.878906,19.042969,58.105469,47.363281,0.272490
72,218.261719,28.320312,21.484375,3.906250,-51.757812,0.269370
73,-220.703125,33.203125,31.250000,-21.972656,-48.828125,0.273276
74,-342.773438,36.621094,38.085938,17.578125,7.324219,0.277183
75,27.832031,25.878906,27.343750,71.777344,93.261719,0.281089
76,389.160156,22.460938,16.601562,65.917969,92.773438,0.284995
77,291.503906,25.390625,21.972656,10.253906,19.042969,0.288901
78,-154.296875,27.832031,32.226562,-10.742188,-43.457031,0.292808
79,-346.191406,28.808594,37.597656,23.437500,-10.253906,0.296714
80,-32.226562,26.855469,32.714844,70.800781,91.796875,0.300620
81,356.445312,22.460938,27.343750,67.871094,86.914062,0.304526
82,317.871094,20.019531,24.414062,17.578125,8.300781,0.308433
83,-111.816406,33.203125,29.785156,-9.765625,-72.265625,0.312339
84,-357.910156,36.132812,37.597656,11.718750,-32.714844,0.311360
85,-108.886719,18.554688,33.691406,72.753906,82.031250,0.315266
86,298.339844,10.253906,23.437500,67.382812,73.730469,0.319173
87,337.402344,14.648438,22.460938,11.718750,15.625000,0.323079
88,-60.058594,24.414062,28.808594,-19.531250,-26.855469,0.326985
89,-353.027344,31.250000,35.156250,-4.394531,-11.230469,0.330891
90,-156.738281,28.808594,34.179688,53.710938,85.449219,0.334798
91,284.179688,26.855469,24.414062,64.453125,102.050781,0.338704
92,391.113281,25.878906,21.972656,18.554688,-7.812500,0.342610
93,17.578125,31.738281,25.390625,-33.691406,-78.613281,0.346516
94,-327.148438,42.480469,27.832031,-18.554688,-7.812500,0.350423
95,-195.312500,38.574219,27.832031,42.480469,74.707031,0.354329
96,255.859375,28.808594,18.066406,68.359375,124.023438,0.369544
97,421.875000,28.320312,9.765625,41.015625,65.429688,0.373450
98,100.097656,38.085938,18.554688,-10.253906,-30.761719,0.377356
99,-282.226562,49.316406,31.738281,0.488281,-15.136719,0.381262
100,-230.468750,49.804688,30.273438,66.406250,35.644531,0.385169
101,202.636719,34.667969,17.089844,93.261719,66.406250,0.389075
102,427.734375,25.390625,10.742188,58.105469,25.878906,0.392981
103,155.761719,30.761719,15.625000,0.000000,-78.125000,0.396887
104,-273.437500,36.621094,21.972656,-13.183594,-55.664062,0.400794
105,-289.062500,33.203125,25.390625,36.621094,62.500000,0.404700
106,135.742188,26.855469,22.460938,69.335938,154.296875,0.408606
107,410.644531,25.390625,19.042969,40.039062,127.929688,0.412512
108,194.824219,32.226562,21.484375,-8.300781,-4.394531,0.409648
109,-236.816406,40.527344,34.179688,-14.160156,-30.273438,0.413555
110,-308.593750,38.085938,38.574219,32.714844,60.546875,0.417461
111,85.449219,28.320312,29.296875,68.359375,141.113281,0.421367
112,412.109375,21.484375,23.925781,48.828125,123.535156,0.425273
113,266.113281,20.996094,29.785156,8.789062,42.480469,0.429180
114,-172.851562,26.855469,38.574219,-0.976562,-3.906250,0.433086
115,-318.359375,32.714844,42.480469,30.273438,33.203125,0.436992
116,21.484375,23.925781,36.621094,82.031250,82.031250,0.440898
117,380.859375,10.253906,28.320312,78.613281,84.960938,0.444805
118,304.687500,20.019531,28.808594,21.972656,-20.019531,0.448711
119,-131.347656,31.738281,40.039062,-11.718750,-66.894531,0.452617
120,-341.308594,32.226562,40.527344,18.066406,9.277344,0.449348
121,-47.363281,31.250000,27.343750,70.312500,72.265625,0.453255
122,351.074219,29.785156,19.531250,64.941406,78.613281,0.457161
123,345.703125,33.691406,20.019531,17.089844,19.531250,0.461067
124,-76.171875,44.433594,25.878906,-11.718750,-16.113281,0.464973
125,-350.097656,49.804688,30.273438,4.882812,21.484375,0.468880
126,-116.699219,39.550781,24.902344,66.406250,100.097656,0.472786
127,306.640625,32.226562,15.625000,86.914062,96.679688,0.476692
128,360.839844,34.179688,14.648438,39.550781,6.347656,0.480598
129,-46.875000,36.621094,20.996094,-12.207031,-36.621094,0.484505
130,-364.257812,37.109375,24.902344,2.441406,-15.625000,0.488411
131,-187.011719,28.320312,20.996094,52.734375,60.546875,0.492317
132,259.765625,25.878906,16.113281,73.242188,92.285156,0.509357
133,395.996094,27.832031,15.136719,44.433594,37.597656,0.513264
134,42.968750,28.808594,22.949219,-3.906250,16.601562,0.517170
135,-320.800781,33.691406,31.250000,4.882812,7.812500,0.521076
136,-213.378906,30.761719,33.691406,66.406250,83.984375,0.524982
137,233.886719,18.066406,28.808594,92.773438,147.460938,0.528889
138,416.992188,15.136719,26.855469,53.710938,51.757812,0.532795
139,110.351562,23.437500,39.062500,0.976562,-51.269531,0.536701
140,-286.132812,31.250000,46.386719,-4.882812,-62.988281,0.540607
141,-256.835938,30.761719,41.015625,48.828125,9.277344,0.544514
142,169.433594,13.671875,30.273438,73.730469,105.468750,0.548420
143,398.925781,9.277344,23.925781,42.968750,70.800781,0.552326
144,141.601562,22.949219,28.320312,-8.789062,-22.949219,0.551747
145,-281.250000,31.250000,38.574219,-28.808594,-56.640625,0.555654
146,-317.382812,26.367188,39.062500,19.042969,18.554688,0.559560
147,94.726562,21.972656,27.343750,51.269531,96.191406,0.563466
148,386.230469,24.414062,20.996094,32.714844,40.039062,0.567372
149,197.753906,31.250000,24.414062,-3.906250,-42.968750,0.571279
150,-235.351562,36.621094,31.738281,-13.671875,-59.570312,0.575185
151,-330.078125,35.644531,34.667969,31.738281,-7.812500,0.579091
152,52.246094,29.296875,22.949219,77.636719,83.007812,0.582997
153,389.160156,25.390625,19.531250,67.871094,63.476562,0.586904
154,268.066406,30.273438,26.367188,14.648438,-22.949219,0.590810
155,-167.968750,36.132812,34.179688,-10.742188,-28.808594,0.594716
156,-339.843750,33.203125,36.132812,24.902344,13.183594,0.589484
157,-8.789062,24.902344,25.390625,73.242188,80.078125,0.593391
158,377.929688,20.507812,20.019531,72.265625,113.769531,0.597297
159,323.242188,21.972656,21.972656,21.484375,31.738281,0.601203
160,-109.375000,33.691406,28.808594,-9.765625,-41.015625,0.605109
161,-328.125000,41.015625,36.132812,29.296875,5.371094,0.609016
162,-53.710938,31.738281,33.203125,89.843750,102.539062,0.612922
163,353.515625,24.902344,21.972656,85.449219,120.605469,0.616828
164,368.652344,29.785156,18.554688,23.925781,48.828125,0.620734
165,-61.523438,35.156250,26.367188,-8.300781,-53.710938,0.624641
166,-350.585938,39.550781,32.226562,22.949219,-53.710938,0.628547
167,-133.789062,34.179688,27.832031,64.453125,67.382812,0.632453
168,290.039062,25.390625,20.019531,75.195312,84.472656,0.649330
169,363.281250,21.972656,14.648438,24.902344,12.695312,0.653236
170,-13.183594,29.785156,20.996094,-20.019531,-41.992188,0.657142
171,-344.238281,36.621094,33.203125,-12.695312,7.324219,0.661048
172,-196.777344,29.785156,28.320312,29.296875,112.792969,0.664955
173,258.789062,24.414062,20.507812,61.523438,103.515625,0.668861
174,405.761719,30.273438,20.996094,16.113281,13.671875,0.672767
175,57.617188,37.109375,23.437500,-43.457031,-71.777344,0.676673
176,-322.265625,36.132812,29.785156,-28.808594,-51.757812,0.680580
177,-238.769531,27.832031,29.296875,23.437500,71.777344,0.684486
178,216.308594,22.949219,20.996094,61.035156,132.324219,0.688392
179,415.039062,22.949219,21.484375,26.855469,41.992188,0.692298
180,124.023438,26.855469,31.250000,-31.250000,-90.332031,0.689433
181,-269.531250,40.039062,37.109375,-17.578125,-74.218750,0.693340
182,-257.324219,38.574219,35.156250,44.433594,30.273438,0.697246
183,163.574219,23.437500,26.367188,79.101562,88.378906,0.701152
184,414.550781,20.996094,20.507812,50.781250,43.945312,0.705058
185,186.035156,26.855469,23.437500,-0.488281,-57.617188,0.708965
186,-233.886719,34.667969,33.203125,-2.441406,-82.519531,0.712871
187,-286.621094,35.156250,33.691406,47.363281,23.925781,0.716777
188,103.027344,20.996094,25.878906,80.566406,103.027344,0.720683
189,396.972656,19.042969,22.460938,70.800781,72.753906,0.724590
190,237.304688,32.226562,23.925781,22.460938,-17.578125,0.728496
191,-216.308594,31.738281,26.855469,-6.347656,-48.339844,0.732402
192,-344.238281,25.878906,31.738281,29.296875,55.175781,0.733697
193,33.203125,23.437500,28.320312,79.101562,145.996094,0.737603
194,381.347656,21.484375,22.949219,63.476562,137.207031,0.741510
195,274.414062,25.390625,27.832031,13.183594,58.105469,0.745416
196,-172.363281,31.250000,31.250000,-7.812500,-23.925781,0.749322
197,-354.492188,29.785156,32.714844,24.902344,9.765625,0.753228
198,-26.367188,23.925781,21.484375,71.289062,103.027344,0.757135
199,358.886719,21.484375,13.671875,69.335938,87.402344,0.761041
200,312.011719,22.460938,20.507812,17.578125,-33.203125,0.764947
201,-125.976562,28.320312,27.343750,-23.437500,-80.078125,0.768853
202,-366.699219,34.667969,32.714844,3.906250,-15.625000,0.772760
203,-98.144531,29.296875,26.855469,57.617188,71.777344,0.776666
204,316.406250,19.531250,19.042969,67.382812,84.960938,0.794341
205,343.750000,20.507812,22.949219,13.183594,7.324219,0.798247
206,-59.082031,35.156250,34.667969,-16.601562,-60.546875,0.802153
207,-352.050781,39.062500,36.621094,-2.441406,-48.339844,0.806059
208,-155.761719,27.832031,30.273438,48.828125,46.386719,0.809966
209,284.179688,19.531250,27.343750,79.589844,101.074219,0.813872
210,381.347656,24.414062,26.367188,36.132812,22.949219,0.817778
211,5.859375,31.250000,33.691406,-1.953125,-90.820312,0.821684
212,-344.238281,33.691406,36.132812,3.906250,-90.332031,0.825591
213,-210.449219,29.296875,27.832031,52.246094,23.437500,0.829497
214,245.605469,24.414062,22.949219,75.683594,109.863281,0.833403
215,406.250000,23.925781,28.320312,39.062500,56.640625,0.837309
216,84.472656,31.250000,36.132812,-7.812500,13.183594,0.829432
217,-300.292969,37.597656,38.574219,-1.464844,6.347656,0.833338
218,-249.023438,31.250000,37.597656,52.734375,89.355469,0.837244
219,191.406250,21.484375,30.761719,84.960938,138.671875,0.841150
220,410.644531,19.042969,23.925781,54.687500,87.402344,0.845057
221,132.812500,29.785156,28.320312,-1.464844,-8.789062,0.848963
222,-277.343750,35.644531,36.132812,-2.441406,-42.968750,0.852869
223,-276.855469,34.179688,35.156250,51.269531,67.382812,0.856775
224,138.183594,28.808594,30.273438,74.218750,144.042969,0.860682
225,402.832031,22.949219,24.902344,45.898438,95.214844,0.864588
226,193.847656,31.250000,28.320312,5.371094,-14.160156,0.868494
227,-240.722656,38.574219,38.085938,-2.441406,-7.812500,0.872400
228,-318.359375,38.085938,36.132812,31.250000,63.476562,0.869237
229,73.730469,27.832031,25.390625,72.753906,121.093750,0.873143
230,389.160156,21.484375,20.507812,61.523438,102.539062,0.877049
231,236.816406,27.343750,27.343750,4.882812,-7.812500,0.880956
232,-211.425781,35.156250,36.621094,-16.113281,-23.437500,0.884862
233,-350.097656,35.156250,40.527344,22.460938,37.597656,0.888768
234,6.835938,24.414062,34.179688,68.359375,99.121094,0.892674
235,369.628906,19.531250,21.972656,59.570312,60.546875,0.896581
236,292.968750,24.414062,20.996094,13.183594,-35.644531,0.900487
237,-158.203125,30.761719,28.320312,-14.160156,-54.687500,0.904393
238,-358.398438,34.667969,33.691406,19.531250,6.347656,0.908299
239,-44.921875,29.296875,28.320312,78.613281,107.910156,0.912206
240,340.332031,24.902344,22.460938,67.382812,92.773438,0.929342
241,317.871094,27.343750,21.972656,8.300781,23.925781,0.933248
242,-106.933594,37.597656,28.808594,-15.136719,-23.925781,0.937155
243,-360.351562,40.039062,35.156250,20.507812,17.089844,0.941061
244,-113.281250,27.832031,26.367188,76.171875,133.789062,0.944967
245,317.382812,24.414062,16.113281,81.054688,117.187500,0.948873
246,371.582031,28.808594,16.113281,27.343750,0.000000,0.952780
247,-34.179688,34.179688,25.878906,-20.019531,-109.863281,0.956686
248,-346.679688,40.039062,32.714844,-2.929688,-72.265625,0.960592
249,-167.968750,36.132812,29.296875,49.316406,38.574219,0.964498
250,265.625000,22.949219,21.972656,64.941406,64.941406,0.968405
251,385.742188,20.996094,21.972656,15.625000,14.160156,0.972311
252,36.132812,30.761719,28.808594,-29.296875,-36.621094,0.969431
253,-311.523438,41.503906,34.179688,-5.859375,20.996094,0.973338
254,-198.730469,37.109375,31.738281,53.222656,105.468750,0.977244
255,241.699219,24.902344,24.902344,77.636719,146.484375,0.981150
256,425.781250,26.367188,21.484375,41.015625,113.281250,0.985056
257,113.769531,36.132812,26.367188,-12.695312,1.953125,0.988963
258,-279.296875,40.527344,30.273438,-6.835938,-16.601562,0.992869
259,-236.328125,33.691406,26.855469,48.339844,56.152344,0.996775
260,187.011719,21.972656,18.554688,68.847656,83.496094,1.000681
261,400.390625,20.507812,15.136719,36.621094,35.644531,1.004588
262,132.812500,26.855469,20.019531,-19.531250,-24.414062,1.008494
263,-278.320312,34.667969,29.785156,-20.019531,-11.718750,1.012400
264,-298.828125,33.691406,31.250000,35.156250,53.222656,1.011084
265,108.398438,20.507812,22.949219,71.289062,116.210938,1.014990
266,396.484375,17.578125,17.089844,56.640625,108.398438,1.018896
267,211.425781,28.808594,21.484375,2.929688,-6.835938,1.022803
268,-219.238281,36.132812,30.273438,-2.929688,-77.148438,1.026709
269,-310.546875,32.714844,29.785156,48.339844,-0.976562,1.030615
270,67.871094,23.437500,25.878906,81.542969,81.542969,1.034521
271,393.554688,17.578125,21.972656,62.011719,58.105469,1.038428
272,258.300781,21.972656,28.808594,6.835938,-28.808594,1.042334
273,-184.082031,31.738281,39.550781,-11.230469,-87.402344,1.046240
274,-338.867188,33.691406,39.550781,34.667969,-48.339844,1.050146
275,-7.324219,22.460938,29.296875,69.824219,62.011719,1.054053
276,358.398438,14.648438,17.089844,58.593750,98.144531,1.069411
277,310.058594,23.437500,20.019531,19.531250,48.828125,1.073318
278,-124.511719,36.132812,34.667969,-2.441406,-38.085938,1.077224
279,-360.839844,39.062500,34.667969,14.160156,-43.945312,1.081130
280,-69.335938,30.761719,26.855469,61.523438,63.476562,1.085036
281,342.773438,26.367188,24.414062,69.824219,78.125000,1.088943
282,342.285156,30.761719,26.855469,19.042969,-8.300781,1.092849
283,-70.312500,39.062500,32.714844,-19.531250,-53.222656,1.096755
284,-344.238281,41.503906,39.062500,14.160156,-6.347656,1.100661
285,-126.464844,31.738281,36.132812,68.847656,87.890625,1.104568
286,308.105469,22.460938,26.367188,82.031250,118.652344,1.108474
287,377.441406,23.437500,26.367188,30.761719,18.554688,1.112380
288,-22.949219,32.226562,32.714844,-24.902344,-75.195312,1.109380
289,-343.261719,40.039062,37.109375,-8.789062,-67.382812,1.113286
290,-177.246094,27.832031,31.738281,54.199219,62.988281,1.117193
291,253.417969,18.066406,24.902344,77.148438,137.695312,1.121099
292,377.441406,21.484375,22.949219,29.785156,62.011719,1.125005
293,44.433594,31.250000,24.414062,-9.277344,-14.648438,1.128911
294,-314.453125,38.085938,29.296875,0.000000,-12.207031,1.132818
295,-233.398438,28.808594,29.785156,42.480469,70.312500,1.136724
296,198.730469,20.019531,24.902344,67.382812,118.652344,1.140630
297,395.507812,20.019531,21.972656,36.621094,26.367188,1.144536
298,103.515625,26.367188,26.855469,-9.277344,-112.792969,1.148443
299,-286.132812,34.667969,33.691406,-3.906250,-86.914062,1.152349
300,-258.300781,33.203125,36.132812,48.828125,5.859375,1.149109
301,165.039062,24.902344,31.738281,81.054688,45.410156,1.153016
302,409.667969,18.066406,22.949219,44.921875,45.898438,1.156922
303,178.222656,25.878906,18.554688,-14.648438,-26.855469,1.160828
304,-243.164062,32.226562,24.902344,-8.300781,-64.941406,1.164734
305,-305.664062,31.250000,30.273438,29.785156,-2.441406,1.168641
306,86.914062,28.808594,28.320312,62.500000,75.195312,1.172547
307,387.695312,23.437500,23.925781,49.316406,41.992188,1.176453
308,215.332031,22.460938,23.437500,-15.136719,-36.132812,1.180359
309,-221.191406,28.320312,32.714844,-30.761719,-60.546875,1.184266
310,-331.054688,31.738281,31.738281,12.695312,15.136719,1.188172
311,41.992188,22.949219,22.460938,62.011719,93.261719,1.192078
312,385.742188,15.136719,20.507812,45.898438,56.640625,1.210017
313,277.343750,22.949219,24.902344,-1.953125,-9.765625,1.213923
314,-168.945312,36.621094,34.179688,-12.695312,-42.968750,1.217829
315,-350.585938,38.574219,35.156250,21.972656,28.320312,1.221736
316,-18.554688,27.343750,27.832031,76.660156,106.933594,1.225642
317,361.328125,21.484375,20.996094,76.660156,95.214844,1.229548
318,309.082031,24.414062,25.390625,16.601562,-7.324219,1.233454
319,-117.187500,34.179688,35.644531,-15.136719,-62.988281,1.237361
320,-348.632812,37.597656,37.109375,24.414062,13.671875,1.241267
321,-83.007812,34.179688,29.785156,75.195312,104.003906,1.245173
322,324.218750,29.785156,25.878906,81.054688,93.261719,1.249079
323,350.097656,27.832031,22.949219,24.902344,-8.300781,1.252986
324,-57.128906,35.644531,30.273438,-17.089844,-81.542969,1.249357
325,-348.632812,37.109375,36.621094,12.207031,-31.250000,1.253264
326,-145.019531,28.808594,33.203125,62.011719,70.800781,1.257170
327,289.062500,22.460938,26.367188,68.847656,76.171875,1.261076
328,385.742188,22.949219,16.113281,29.785156,3.906250,1.264982
329,17.089844,34.179688,24.902344,0.976562,-61.523438,1.268889
330,-322.753906,44.921875,37.109375,2.929688,-47.851562,1.272795
331,-197.265625,34.179688,31.738281,41.992188,31.738281,1.276701
332,236.816406,19.042969,22.460938,60.546875,27.343750,1.280607
333,388.183594,18.554688,21.484375,23.437500,-44.433594,1.284514
334,56.152344,24.902344,29.296875,-19.531250,-76.171875,1.288420
335,-325.195312,30.273438,37.597656,-15.136719,-63.964844,1.292326
336,-263.671875,27.832031,31.738281,35.156250,-10.253906,1.309675
337,182.128906,25.390625,24.414062,65.917969,90.820312,1.313581
338,395.996094,24.902344,23.437500,32.226562,70.800781,1.317487
339,108.886719,28.808594,26.855469,-19.531250,-68.847656,1.321394
340,-293.457031,34.667969,35.156250,-21.972656,-94.726562,1.325300
341,-282.714844,32.226562,37.109375,33.203125,21.484375,1.329206
342,146.484375,26.367188,26.367188,65.429688,76.171875,1.333112
343,409.179688,21.484375,27.343750,40.527344,28.320312,1.337019
344,180.664062,27.832031,36.132812,-5.859375,-62.988281,1.340925
345,-239.746094,36.132812,36.621094,-22.460938,-74.218750,1.344831
346,-291.992188,28.808594,37.597656,32.226562,10.253906,1.348737
347,93.261719,16.601562,29.785156,79.101562,87.890625,1.352644
348,403.808594,15.625000,24.414062,60.546875,46.875000,1.349404
349,252.929688,25.390625,28.320312,14.160156,-59.570312,1.353310
350,-183.105469,33.203125,36.621094,-1.953125,-68.359375,1.357216
351,-309.082031,34.179688,36.132812,45.410156,-1.464844,1.361123
352,49.316406,30.761719,27.832031,91.796875,51.269531,1.365029
353,391.113281,28.320312,28.320312,66.406250,46.875000,1.368935
354,289.062500,28.808594,28.808594,11.718750,-43.945312,1.372841
355,-146.484375,35.644531,30.273438,-14.648438,-98.632812,1.376748
356,-335.449219,42.480469,30.761719,11.718750,-38.574219,1.380654
357,-25.390625,34.667969,23.925781,66.894531,72.265625,1.384560
358,352.050781,25.390625,22.460938,62.500000,81.542969,1.388466
359,318.359375,28.808594,26.855469,6.835938,-43.457031,1.392373
360,-103.027344,35.644531,33.203125,-17.578125,-94.726562,1.389404
361,-354.003906,36.132812,40.527344,8.789062,-24.414062,1.393310
362,-105.957031,27.343750,38.574219,58.593750,57.617188,1.397216
363,311.035156,16.601562,27.343750,58.593750,94.726562,1.401123
364,354.492188,21.484375,23.925781,11.230469,20.019531,1.405029
365,-43.457031,34.179688,34.179688,-26.855469,-58.593750,1.408935
366,-354.980469,36.621094,40.039062,-10.742188,-9.765625,1.412841
367,-169.433594,30.273438,31.738281,52.246094,90.332031,1.416748
368,275.878906,24.414062,22.949219,76.171875,114.746094,1.420654
369,386.230469,27.832031,27.832031,37.597656,32.226562,1.424560
370,16.113281,31.250000,34.667969,-13.671875,-33.203125,1.428466
371,-335.449219,32.226562,39.062500,-13.671875,-54.687500,1.432373
372,-209.472656,24.902344,37.109375,47.851562,47.851562,1.437234
373,247.070312,18.554688,27.343750,79.101562,135.742188,1.441140
374,422.363281,18.554688,22.460938,43.945312,50.781250,1.445046
375,95.703125,23.925781,30.273438,-10.742188,-50.292969,1.448952
376,-295.410156,30.761719,41.503906,-14.160156,-45.898438,1.452859
377,-237.304688,31.250000,41.992188,50.781250,73.730469,1.456765
378,202.636719,17.578125,35.644531,89.843750,132.812500,1.460671
379,428.710938,10.253906,27.343750,53.710938,27.343750,1.464577
380,157.226562,18.554688,26.855469,-7.812500,-54.199219,1.468484
381,-263.671875,29.785156,36.132812,-15.136719,-47.851562,1.472390
382,-279.785156,34.667969,36.132812,40.039062,41.992188,1.476296
383,130.371094,25.390625,26.855469,70.312500,92.773438,1.480202
384,394.531250,19.531250,23.925781,30.761719,56.640625,1.489446
385,184.082031,26.367188,25.390625,-33.203125,-1.953125,1.493352
386,-234.863281,41.015625,32.714844,-29.296875,-65.429688,1.497258
387,-310.546875,42.480469,33.691406,20.996094,20.507812,1.501165
388,55.175781,28.808594,23.437500,51.269531,135.253906,1.505071
389,373.535156,21.972656,17.089844,31.250000,87.890625,1.508977
390,237.304688,30.761719,20.019531,-19.531250,-36.132812,1.512883
391,-199.707031,41.992188,33.203125,-25.390625,-71.777344,1.516790
392,-345.214844,41.992188,34.667969,19.531250,9.765625,1.520696
393,1.953125,35.644531,24.902344,62.988281,131.347656,1.524602
394,374.511719,32.226562,22.460938,61.523438,110.351562,1.528508
395,296.386719,33.203125,26.855469,13.671875,44.921875,1.532415
396,-137.695312,40.039062,33.203125,-20.507812,11.230469,1.529438
397,-348.144531,41.503906,34.179688,15.136719,17.089844,1.533345
398,-57.128906,32.714844,29.296875,67.871094,71.777344,1.537251
399,340.820312,25.390625,22.949219,72.753906,65.429688,1.541157
400,338.867188,25.390625,23.437500,23.437500,-4.394531,1.545063
401,-69.335938,29.785156,30.761719,-1.464844,-16.601562,1.548970
402,-340.820312,32.226562,37.597656,30.761719,48.828125,1.552876
403,-113.281250,25.878906,34.179688,72.753906,113.769531,1.556782
404,313.964844,20.507812,25.878906,79.101562,95.214844,1.560688
405,375.000000,26.367188,29.785156,41.015625,-8.300781,1.564595
406,-20.019531,33.691406,35.644531,0.488281,-54.199219,1.568501
407,-338.867188,31.738281,40.527344,14.648438,-7.812500,1.572407
408,-176.269531,24.902344,36.621094,66.406250,58.593750,1.589434
409,257.812500,20.507812,29.785156,80.566406,100.585938,1.593340
410,375.000000,17.089844,31.250000,31.250000,38.574219,1.597247
411,6.835938,21.484375,36.132812,-24.414062,-57.128906,1.601153
412,-349.609375,27.343750,41.015625,-16.601562,-45.898438,1.605059
413,-230.957031,22.949219,37.109375,44.921875,21.972656,1.608965
414,214.355469,13.671875,33.203125,79.589844,77.636719,1.612872
415,387.695312,15.625000,31.738281,35.156250,58.105469,1.616778
416,75.195312,24.902344,32.714844,-15.625000,-19.042969,1.620684
417,-310.058594,28.320312,38.574219,-0.488281,-75.683594,1.624590
418,-263.671875,25.390625,33.691406,52.246094,-7.812500,1.628497
419,178.222656,19.531250,24.902344,83.984375,87.890625,1.632403
420,411.621094,18.066406,22.949219,44.433594,43.945312,1.630831
421,146.972656,23.437500,28.320312,-14.648438,-71.777344,1.634738
422,-275.878906,30.761719,37.109375,-14.160156,-55.664062,1.638644
423,-308.105469,31.250000,38.574219,34.179688,40.039062,1.642550
424,110.351562,21.484375,32.226562,74.218750,82.519531,1.646456
425,417.480469,18.066406,19.531250,60.546875,60.058594,1.650363
426,230.957031,24.414062,21.484375,12.207031,-19.531250,1.654269
427,-214.843750,29.296875,38.085938,-5.371094,-35.156250,1.658175
428,-323.730469,31.250000,37.597656,34.667969,54.199219,1.662081
429,41.503906,20.996094,30.273438,77.636719,121.093750,1.665988
430,370.605469,14.648438,27.832031,62.500000,73.730469,1.669894
431,251.464844,23.437500,30.273438,12.695312,-27.832031,1.673800
432,-174.316406,30.273438,36.621094,-8.300781,-53.710938,1.671913
433,-331.542969,30.273438,38.574219,38.085938,36.132812,1.675819
434,-7.324219,26.367188,30.761719,79.589844,127.929688,1.679725
435,355.957031,18.554688,21.484375,58.593750,134.277344,1.683632
436,287.109375,16.113281,27.832031,0.488281,70.312500,1.687538
437,-148.437500,27.832031,38.574219,-22.460938,6.835938,1.691444
438,-362.304688,33.691406,41.015625,15.625000,36.132812,1.695350
439,-88.867188,21.484375,34.667969,53.222656,166.992188,1.699257
440,311.523438,15.625000,23.437500,52.246094,147.949219,1.703163
441,333.007812,21.972656,23.925781,11.718750,0.976562,1.707069
442,-76.171875,28.320312,27.832031,-20.507812,-52.246094,1.710975
443,-345.214844,32.226562,33.203125,11.230469,-11.230469,1.714882
444,-119.140625,27.832031,31.738281,69.824219,115.234375,1.729164
445,307.617188,20.019531,19.531250,65.429688,148.437500,1.733070
446,378.906250,26.855469,15.625000,10.742188,10.742188,1.736977
447,-9.277344,37.109375,26.367188,-26.855469,-77.148438,1.740883
448,-335.937500,31.738281,33.691406,-9.277344,-50.292969,1.744789
449,-177.246094,26.855469,29.296875,52.734375,34.179688,1.748695
450,264.160156,23.437500,23.437500,80.078125,95.214844,1.752602
451,405.273438,22.460938,20.507812,40.527344,54.199219,1.756508
452,62.011719,28.808594,26.367188,-7.324219,-3.906250,1.760414
453,-306.640625,36.132812,34.179688,5.371094,8.789062,1.764320
454,-223.632812,33.691406,33.203125,54.199219,102.539062,1.768227
455,213.378906,20.507812,28.320312,78.125000,130.371094,1.772133
456,408.203125,15.625000,25.878906,48.339844,41.015625,1.769327
457,108.886719,25.878906,28.320312,-4.394531,-51.757812,1.773233
458,-290.527344,32.714844,35.644531,-3.417969,-49.804688,1.777139
459,-272.460938,26.855469,36.132812,49.316406,27.343750,1.781046
460,150.390625,14.160156,30.761719,83.984375,104.980469,1.784952
461,400.390625,9.277344,26.367188,53.710938,85.937500,1.788858
462,173.828125,20.019531,30.761719,5.859375,-52.246094,1.792764
463,-250.976562,28.808594,40.527344,1.464844,-84.960938,1.796671
464,-308.593750,24.414062,38.085938,30.761719,12.207031,1.800577
465,100.097656,12.695312,29.785156,73.242188,97.656250,1.804483
466,414.550781,11.718750,31.738281,75.195312,41.992188,1.808389
467,261.230469,23.437500,31.738281,19.531250,-43.457031,1.812296
468,-173.339844,35.156250,31.250000,1.464844,-55.175781,1.809385
469,-311.523438,37.109375,32.714844,36.621094,44.433594,1.813291
470,47.363281,29.296875,26.855469,68.847656,104.492188,1.817197
471,393.554688,20.996094,19.531250,56.640625,51.757812,1.821103
472,291.503906,23.925781,19.042969,9.277344,-40.039062,1.825010
473,-146.484375,36.132812,29.785156,-3.906250,-112.792969,1.828916
474,-331.542969,37.597656,34.179688,31.250000,-41.015625,1.832822
475,-7.324219,23.437500,24.902344,83.496094,28.320312,1.836728
476,378.417969,16.601562,19.531250,84.960938,2.929688,1.840635
477,329.101562,15.136719,22.949219,30.273438,-77.636719,1.844541
478,-106.445312,16.601562,28.320312,0.488281,-124.023438,1.848447
479,-337.890625,21.484375,31.738281,36.621094,-53.710938,1.852353
480,-68.359375,19.531250,26.855469,91.796875,55.175781,1.869403
481,341.796875,15.136719,12.207031,83.007812,62.988281,1.873310
482,362.304688,14.160156,7.324219,29.785156,-29.785156,1.877216
483,-41.503906,18.554688,21.484375,8.300781,-103.515625,1.881122
484,-329.589844,24.414062,26.367188,30.273438,-39.062500,1.885028
485,-123.046875,20.507812,20.019531,82.031250,97.167969,1.888935
486,319.824219,12.207031,9.765625,101.074219,110.351562,1.892841
487,420.898438,8.789062,3.417969,63.476562,11.718750,1.896747
488,48.828125,14.648438,3.906250,9.277344,-64.941406,1.900653
489,-290.527344,18.554688,7.812500,12.207031,-73.242188,1.904560
490,-146.484375,7.324219,5.371094,73.730469,20.019531,1.908466
491,305.175781,0.000000,-1.953125,104.003906,71.289062,1.912372
492,458.984375,-2.441406,-8.300781,62.500000,22.460938,1.911594
493,135.742188,2.441406,-3.906250,31.738281,-62.500000,1.915500
494,-226.074219,14.160156,5.371094,59.570312,-71.289062,1.919407
495,-164.062500,4.882812,-5.371094,96.679688,18.554688,1.923313
496,269.531250,-8.789062,-18.554688,123.046875,50.292969,1.927219
497,486.328125,-10.253906,-19.531250,90.820312,-20.019531,1.931125
498,213.378906,-3.906250,-17.578125,42.480469,-115.234375,1.935032
499,-188.964844,7.812500,-15.136719,54.687500,-96.679688,1.938938
500,-189.453125,4.882812,-14.160156,105.957031,44.433594,1.942844
501,238.769531,-0.976562,-23.925781,138.671875,84.472656,1.946750
502,510.253906,-0.488281,-29.785156,104.003906,34.667969,1.950657
503,282.714844,5.371094,-25.390625,55.175781,-5.859375,1.954563
504,-149.414062,11.718750,-16.601562,47.851562,-20.507812,1.949248
505,-220.703125,2.929688,-13.671875,84.960938,70.312500,1.953154
506,165.039062,-8.789062,-20.996094,130.371094,151.367188,1.957060
507,475.097656,-7.324219,-25.878906,124.511719,65.429688,1.960967
508,324.707031,-2.929688,-22.460938,66.406250,-43.945312,1.964873
509,-112.304688,-8.789062,-15.136719,40.527344,-81.054688,1.968779
510,-263.671875,-5.371094,-16.113281,80.078125,-27.343750,1.972685
511,81.054688,1.464844,-22.949219,118.652344,114.257812,1.976592
512,449.218750,7.324219,-23.437500,111.816406,65.429688,1.980498
513,359.863281,7.324219,-18.554688,60.546875,-72.753906,1.984404
514,-83.984375,15.625000,-9.277344,26.367188,-59.082031,1.988310
515,-291.015625,27.343750,-2.441406,60.546875,-25.390625,1.992217
516,12.207031,7.812500,-5.859375,114.746094,42.968750,2.009238
517,406.738281,9.277344,-13.183594,104.980469,91.308594,2.013144
518,389.160156,19.042969,-11.230469,58.105469,45.898438,2.017051
519,-26.367188,24.414062,-1.464844,28.320312,-41.992188,2.020957
520,-284.667969,17.578125,3.417969,53.710938,-51.269531,2.024863
521,-34.667969,9.765625,-2.441406,107.421875,56.640625,2.028769
522,387.207031,17.089844,-10.253906,111.816406,86.914062,2.032676
523,434.570312,20.996094,-7.324219,65.917969,17.578125,2.036582
524,23.437500,29.785156,1.953125,23.437500,-18.554688,2.040488
525,-292.480469,36.621094,3.417969,40.039062,12.207031,2.044394
526,-101.562500,29.785156,6.347656,98.144531,76.171875,2.048301
527,333.007812,11.718750,3.906250,116.699219,124.511719,2.052207
528,426.269531,1.953125,-1.953125,69.824219,85.937500,2.049878
529,55.175781,15.136719,2.929688,20.019531,-7.812500,2.053784
530,-300.292969,20.996094,12.695312,25.390625,-18.066406,2.057691
531,-186.523438,10.742188,16.113281,81.542969,39.550781,2.061597
532,253.417969,20.996094,10.742188,107.910156,55.175781,2.065503
533,421.386719,35.644531,13.671875,74.707031,41.015625,2.069409
534,104.492188,35.644531,21.484375,16.601562,-18.066406,2.073316
535,-277.832031,34.667969,27.343750,6.835938,-54.687500,2.077222
536,-232.421875,35.644531,25.390625,54.199219,23.925781,2.081128
537,202.148438,24.902344,16.113281,79.589844,79.589844,2.085034
538,430.664062,22.949219,13.671875,56.152344,1.464844,2.088941
539,167.480469,33.203125,19.042969,4.394531,-62.500000,2.092847
540,-235.839844,28.320312,32.226562,5.371094,-40.039062,2.089310
541,-260.253906,22.949219,33.691406,68.847656,56.640625,2.093216
542,154.785156,32.226562,20.996094,105.957031,86.914062,2.097123
543,450.195312,27.343750,20.019531,99.609375,67.871094,2.101029
544,261.230469,23.437500,28.808594,70.800781,-15.136719,2.104935
545,-184.570312,37.109375,30.761719,42.968750,-102.539062,2.108841
546,-296.386719,50.781250,31.250000,65.429688,-23.925781,2.112748
547,85.449219,36.621094,27.343750,104.980469,62.011719,2.116654
548,410.156250,24.414062,17.089844,79.589844,29.296875,2.120560
549,268.066406,37.597656,12.207031,9.277344,-15.625000,2.124466
550,-165.527344,51.269531,15.625000,-10.253906,-10.253906,2.128373
551,-314.453125,47.851562,18.554688,31.250000,37.597656,2.132279
552,35.156250,40.527344,10.253906,87.890625,83.496094,2.149335
553,408.203125,41.015625,2.929688,91.308594,46.386719,2.153241
554,325.683594,37.597656,7.324219,26.855469,-16.113281,2.157147
555,-109.863281,46.875000,17.578125,-13.183594,-53.710938,2.161054
556,-325.683594,57.128906,18.066406,18.554688,19.042969,2.164960
557,-39.550781,55.664062,16.601562,82.519531,89.355469,2.168866
558,364.257812,48.339844,13.671875,89.843750,62.500000,2.172772
559,366.210938,42.480469,14.648438,36.132812,15.625000,2.176679
560,-50.292969,44.921875,27.343750,10.742188,-12.695312,2.180585
561,-318.847656,46.875000,33.691406,30.761719,-30.273438,2.184491
562,-88.867188,36.132812,28.808594,82.031250,50.292969,2.188397
563,338.378906,25.878906,20.507812,98.632812,115.234375,2.192304
564,407.714844,26.855469,18.554688,38.085938,43.945312,2.189303
565,11.230469,38.085938,23.925781,1.464844,-48.828125,2.193209
566,-314.941406,46.386719,30.273438,18.066406,-2.929688,2.197115
567,-143.554688,47.363281,31.250000,68.359375,115.722656,2.201022
568,300.292969,41.503906,26.367188,99.121094,136.718750,2.204928
569,426.757812,33.691406,21.972656,53.710938,96.679688,2.208834
570,77.636719,40.039062,29.296875,5.371094,-0.488281,2.212740
571,-282.226562,39.550781,38.574219,18.554688,-37.109375,2.216647
572,-187.500000,35.644531,31.738281,71.777344,66.406250,2.220553
573,249.023438,38.085938,21.972656,96.679688,108.398438,2.224459
574,427.734375,23.437500,20.019531,68.847656,56.152344,2.228365
575,111.328125,28.320312,23.437500,18.066406,4.394531,2.232272
576,-286.621094,45.898438,29.296875,14.160156,-20.507812,2.229152
577,-255.859375,34.179688,31.250000,62.500000,48.828125,2.233058
578,174.316406,19.042969,22.949219,87.402344,113.281250,2.236965
579,420.410156,21.972656,20.507812,58.593750,69.824219,2.240871
580,175.781250,24.902344,25.390625,9.765625,-39.062500,2.244777
581,-239.257812,35.156250,32.714844,0.488281,-77.636719,2.248683
582,-274.902344,46.386719,33.203125,42.480469,-34.179688,2.252590
583,134.277344,37.597656,23.437500,80.566406,22.460938,2.256496
584,437.500000,30.761719,23.437500,60.058594,-5.371094,2.260402
585,247.558594,26.855469,23.437500,-0.976562,-76.171875,2.264308
586,-192.871094,27.832031,24.414062,-13.183594,-62.500000,2.268215
587,-291.503906,30.273438,27.343750,22.460938,-15.136719,2.272121
588,83.007812,25.390625,20.996094,66.894531,41.992188,2.289387
589,421.875000,17.089844,15.136719,60.546875,43.457031,2.293294
590,295.898438,21.484375,20.507812,8.789062,-48.828125,2.297200
591,-161.132812,38.574219,33.691406,-0.976562,-62.500000,2.301106
592,-333.496094,28.808594,39.550781,35.156250,36.132812,2.305012
593,-10.742188,23.437500,33.691406,76.171875,126.953125,2.308919
594,354.492188,26.855469,25.878906,75.683594,95.703125,2.312825
595,290.039062,10.742188,25.878906,20.019531,-27.832031,2.316731
596,-156.250000,20.019531,33.691406,-16.113281,-44.921875,2.320637
597,-385.742188,36.132812,37.597656,25.390625,24.414062,2.324544
598,-111.328125,28.320312,30.761719,60.546875,96.191406,2.328450
599,294.921875,21.972656,26.855469,56.152344,112.792969,2.332356
600,311.523438,19.042969,25.878906,21.972656,30.761719,2.329308
601,-89.355469,23.925781,30.273438,-14.160156,-33.691406,2.333215
602,-358.886719,28.808594,35.156250,0.488281,-5.859375,2.337121
603,-135.253906,21.972656,32.226562,52.734375,93.750000,2.341027
604,300.292969,13.671875,24.414062,68.359375,129.882812,2.344933
605,385.742188,20.507812,19.042969,20.019531,26.855469,2.348840
606,24.414062,38.085938,26.367188,-7.812500,-58.105469,2.352746
607,-303.222656,35.156250,34.667969,10.253906,-29.296875,2.356652
608,-161.621094,22.949219,27.832031,58.593750,81.542969,2.360558
609,288.574219,26.367188,19.531250,83.984375,99.121094,2.364465
610,424.804688,25.390625,17.578125,43.457031,0.000000,2.368371
611,77.148438,34.667969,24.902344,-0.976562,-62.988281,2.372277
612,-288.085938,48.339844,35.644531,11.230469,-76.171875,2.370845
613,-209.960938,37.109375,32.226562,56.152344,50.292969,2.374751
614,213.867188,20.507812,26.367188,81.054688,146.484375,2.378658
615,406.738281,16.113281,25.878906,49.804688,66.894531,2.382564
616,111.816406,22.949219,27.832031,2.929688,-50.292969,2.386470
617,-299.804688,31.250000,34.667969,2.929688,-71.777344,2.390376
618,-285.156250,27.832031,37.109375,52.734375,25.878906,2.394283
619,139.160156,19.531250,29.296875,83.984375,92.773438,2.398189
620,396.972656,20.507812,15.625000,56.152344,22.460938,2.402095
621,178.222656,26.367188,17.089844,12.695312,-75.195312,2.406001
622,-257.812500,27.343750,36.132812,2.441406,-65.917969,2.409908
623,-342.773438,27.832031,41.015625,41.503906,19.042969,2.413814
624,46.875000,21.972656,34.667969,86.914062,129.394531,2.429678
625,361.328125,20.019531,31.738281,65.917969,139.648438,2.433584
626,191.406250,18.066406,38.085938,5.859375,34.667969,2.437490
627,-242.675781,16.601562,49.316406,-1.464844,-59.082031,2.441396
628,-352.539062,27.832031,50.781250,38.574219,-40.527344,2.445303
629,20.019531,25.878906,40.527344,86.425781,42.968750,2.449209
630,375.976562,20.507812,32.226562,83.007812,-20.996094,2.453115
631,272.460938,24.414062,32.714844,22.460938,-104.980469,2.457021
632,-162.597656,32.226562,38.574219,-4.882812,-108.886719,2.460928
633,-341.796875,31.250000,39.550781,17.089844,-31.250000,2.464834
634,-16.113281,20.996094,33.691406,71.289062,117.675781,2.468740
635,371.093750,10.742188,29.296875,77.636719,114.746094,2.472646
636,333.984375,17.089844,26.367188,21.972656,0.488281,2.471105
637,-78.613281,24.902344,29.785156,-0.976562,-80.078125,2.475011
638,-323.242188,24.902344,30.761719,22.460938,-68.847656,2.478917
639,-72.265625,31.250000,23.925781,69.335938,73.242188,2.482824
640,340.332031,23.437500,20.996094,73.242188,120.117188,2.486730
641,364.257812,14.160156,19.531250,18.554688,58.105469,2.490636
642,-43.945312,31.738281,31.250000,-14.648438,0.976562,2.494542
643,-338.867188,43.457031,37.597656,15.625000,5.371094,2.498449
644,-149.414062,31.250000,30.273438,59.082031,104.980469,2.502355
645,280.273438,14.160156,24.414062,70.312500,103.515625,2.506261
646,369.628906,12.695312,21.972656,30.273438,20.996094,2.510167
647,-18.066406,27.832031,25.878906,-10.742188,-38.085938,2.514074
648,-363.769531,33.203125,31.250000,7.324219,-5.371094,2.509405
649,-228.515625,28.320312,28.320312,55.664062,83.496094,2.513311
650,213.378906,17.089844,21.484375,76.660156,110.351562,2.517217
651,363.281250,10.253906,20.996094,45.898438,73.730469,2.521124
652,33.203125,21.484375,29.785156,4.394531,-27.343750,2.525030
653,-342.773438,31.250000,41.503906,18.066406,-31.250000,2.528936
654,-271.484375,24.414062,39.550781,57.617188,45.410156,2.532842
655,166.015625,17.578125,32.226562,81.542969,58.105469,2.536749
656,382.812500,23.437500,27.832031,60.546875,-4.394531,2.540655
657,110.351562,32.226562,28.808594,2.441406,-76.171875,2.544561
658,-297.363281,38.574219,37.597656,-2.441406,-68.359375,2.548467
659,-299.316406,30.273438,33.203125,41.015625,9.765625,2.552374
660,125.976562,19.531250,20.996094,68.847656,34.179688,2.569362
661,397.949219,21.484375,18.066406,44.921875,39.062500,2.573269
662,188.964844,32.226562,22.460938,-6.347656,6.835938,2.577175
663,-230.957031,36.621094,30.761719,-16.601562,-37.597656,2.581081
664,-299.316406,32.714844,31.250000,20.507812,15.625000,2.584987
665,97.167969,29.296875,19.042969,58.593750,71.289062,2.588894
666,412.109375,25.878906,13.671875,43.457031,44.433594,2.592800
667,254.394531,27.832031,16.113281,-9.277344,-14.160156,2.596706
668,-174.804688,36.621094,28.808594,-15.625000,-58.105469,2.600612
669,-305.664062,37.109375,32.714844,23.925781,-5.371094,2.604519
670,42.968750,29.296875,21.972656,64.941406,92.285156,2.608425
671,395.996094,23.925781,17.578125,62.500000,61.523438,2.612331
672,305.664062,24.414062,20.507812,14.160156,-65.917969,2.610909
673,-141.113281,25.878906,26.855469,-21.972656,-118.652344,2.614815
674,-340.820312,27.832031,32.226562,11.718750,-74.707031,2.618721
675,-34.667969,29.296875,24.902344,68.359375,10.742188,2.622628
676,342.285156,23.437500,20.019531,60.546875,23.925781,2.626534
677,320.312500,19.042969,28.320312,12.207031,-60.058594,2.630440
678,-102.539062,28.808594,30.761719,-22.949219,-107.421875,2.634346
679,-357.421875,35.156250,34.667969,6.835938,-61.523438,2.638253
680,-109.863281,27.832031,28.320312,60.058594,21.484375,2.642159
681,305.664062,15.136719,19.531250,63.964844,43.457031,2.646065
682,352.050781,20.507812,25.390625,19.042969,-25.878906,2.649971
683,-42.968750,27.343750,31.738281,-18.554688,-55.175781,2.653878
684,-344.726562,24.902344,37.597656,5.859375,10.742188,2.649348
685,-157.226562,23.437500,39.062500,55.664062,66.406250,2.653254
686,286.132812,16.113281,28.808594,70.312500,82.519531,2.657161
687,395.507812,20.019531,23.925781,34.179688,45.898438,2.661067
688,28.320312,31.738281,29.785156,-14.160156,-54.687500,2.664973
689,-322.753906,32.226562,33.691406,-5.371094,-50.292969,2.668879
690,-199.218750,31.738281,37.109375,62.988281,34.667969,2.672786
691,240.722656,23.925781,31.250000,85.449219,73.242188,2.676692
692,399.902344,14.648438,19.531250,38.574219,22.949219,2.680598
693,87.402344,29.296875,21.972656,-6.347656,-52.734375,2.684504
694,-301.269531,40.527344,31.250000,-6.347656,-14.648438,2.688411
695,-262.207031,39.550781,29.785156,45.410156,64.941406,2.692317
696,173.828125,31.250000,17.578125,81.054688,103.027344,2.709386
697,400.878906,18.066406,15.136719,44.433594,55.664062,2.713292
698,141.113281,22.949219,22.949219,-13.671875,4.394531,2.717199
699,-268.554688,36.132812,24.414062,-21.972656,-11.230469,2.721105
700,-287.109375,37.109375,27.832031,25.878906,26.367188,2.725011
701,126.953125,25.390625,24.902344,70.800781,108.886719,2.728917
702,401.367188,11.230469,15.136719,41.503906,78.613281,2.732824
703,198.730469,11.718750,19.531250,-15.136719,-36.621094,2.736730
704,-230.468750,28.808594,30.761719,-21.972656,-52.246094,2.740636
705,-322.753906,28.320312,28.808594,18.554688,29.785156,2.744542
706,69.824219,22.949219,20.996094,69.824219,94.726562,2.748449
707,394.042969,13.671875,16.601562,55.175781,64.941406,2.752355
708,247.070312,10.742188,19.531250,-0.488281,1.953125,2.749226
709,-180.664062,32.714844,30.761719,-15.136719,-24.902344,2.753132
710,-329.589844,36.621094,37.597656,24.902344,12.207031,2.757039
711,5.371094,26.855469,33.203125,80.566406,133.300781,2.760945
712,371.582031,16.113281,21.484375,65.429688,152.343750,2.764851
713,309.082031,18.066406,24.414062,18.066406,15.136719,2.768757
714,-122.070312,36.621094,35.156250,0.976562,-43.945312,2.772664
715,-342.773438,33.691406,39.062500,20.019531,30.273438,2.776570
716,-56.152344,20.507812,37.597656,68.847656,109.375000,2.780476
717,346.679688,16.113281,24.414062,56.640625,63.964844,2.784382
718,344.726562,19.531250,20.996094,0.976562,-55.664062,2.788289
719,-79.101562,31.250000,31.250000,-18.554688,-78.613281,2.792195
720,-350.585938,36.621094,34.179688,5.371094,-3.417969,2.791269
721,-115.722656,36.621094,25.390625,47.851562,46.875000,2.795176
722,308.105469,25.390625,15.136719,52.734375,52.734375,2.799082
723,376.953125,23.925781,18.554688,8.789062,23.925781,2.802988
724,-9.765625,34.179688,25.390625,-18.554688,-43.945312,2.806894
725,-325.683594,36.621094,28.320312,5.859375,-39.550781,2.810801
726,-150.390625,29.785156,26.367188,58.105469,34.667969,2.814707
727,290.527344,17.089844,20.507812,72.265625,69.335938,2.818613
728,411.621094,17.089844,21.972656,31.738281,26.855469,2.822519
729,63.964844,28.320312,22.949219,-17.089844,-66.894531,2.826426
730,-299.316406,36.621094,28.808594,-13.183594,-79.589844,2.830332
731,-206.054688,36.621094,31.250000,47.363281,12.695312,2.834238
732,234.863281,25.390625,23.437500,62.011719,82.519531,2.851586
733,413.574219,16.113281,23.437500,27.832031,47.851562,2.855492
734,103.027344,20.507812,27.832031,-17.089844,-55.664062,2.859398
735,-295.410156,25.390625,30.273438,-23.925781,-80.566406,2.863305
736,-271.484375,23.925781,29.296875,36.621094,10.742188,2.867211
737,158.691406,17.089844,27.343750,76.171875,64.941406,2.871117
738,399.414062,13.671875,23.437500,43.457031,49.316406,2.875023
739,145.507812,20.507812,23.437500,-12.207031,0.488281,2.878930
740,-279.785156,30.761719,29.785156,-7.324219,-9.277344,2.882836
741,-307.128906,34.179688,33.691406,40.039062,25.878906,2.886742
742,113.281250,20.507812,30.273438,78.125000,45.898438,2.890648
743,401.367188,10.253906,25.390625,62.500000,55.664062,2.894555
744,216.796875,14.160156,27.832031,3.906250,-33.203125,2.890821
745,-213.867188,20.996094,33.691406,-6.347656,-96.679688,2.894727
746,-322.265625,30.761719,33.203125,43.457031,-3.906250,2.898633
747,43.457031,21.484375,26.367188,81.542969,94.726562,2.902539
748,371.093750,12.695312,19.042969,61.523438,74.707031,2.906446
749,253.906250,24.902344,17.578125,7.812500,-27.832031,2.910352
750,-178.222656,39.550781,26.367188,-14.160156,-101.562500,2.914258
751,-345.214844,39.062500,34.179688,22.949219,-19.042969,2.918164
752,-12.207031,26.367188,30.761719,67.871094,88.378906,2.922071
753,370.605469,21.484375,23.925781,61.035156,68.359375,2.925977
754,306.640625,23.437500,21.484375,-0.488281,-14.160156,2.929883
755,-126.953125,27.343750,28.320312,-35.644531,-61.523438,2.933789
756,-353.515625,29.296875,28.808594,-8.789062,-20.019531,2.949369
757,-83.984375,24.414062,19.531250,36.132812,79.101562,2.953275
758,321.777344,24.414062,17.089844,52.246094,118.652344,2.957182
759,331.542969,28.320312,22.949219,9.277344,31.250000,2.961088
760,-83.496094,26.367188,32.226562,-12.695312,-54.199219,2.964994
761,-362.304688,24.902344,37.597656,11.718750,-57.128906,2.968900
762,-139.648438,26.367188,33.203125,61.035156,17.089844,2.972807
763,291.015625,20.019531,26.367188,78.125000,60.058594,2.976713
764,362.792969,14.648438,26.367188,31.250000,0.488281,2.980619
765,-17.578125,21.484375,35.644531,-6.835938,-64.941406,2.984525
766,-340.332031,25.390625,41.992188,4.394531,-17.578125,2.988432
767,-194.335938,17.089844,40.039062,60.058594,99.609375,2.992338
768,246.093750,9.277344,32.226562,81.054688,137.695312,2.989159
769,390.625000,9.277344,28.320312,34.179688,100.097656,2.993066
770,51.757812,20.507812,37.109375,-9.765625,-5.371094,2.996972
771,-319.824219,28.808594,42.480469,-1.464844,-38.085938,3.000878
772,-240.234375,22.460938,35.644531,41.503906,84.472656,3.004784
773,202.636719,19.531250,27.343750,69.335938,135.253906,3.008691
774,401.367188,15.625000,22.460938,45.410156,58.593750,3.012597
775,107.910156,17.089844,27.343750,-13.671875,-55.175781,3.016503
776,-290.039062,26.367188,33.203125,-19.042969,-87.890625,3.020409
777,-272.460938,28.808594,31.738281,44.433594,-7.324219,3.024316
778,157.226562,23.925781,28.320312,70.800781,53.710938,3.028222
779,404.296875,15.136719,21.484375,42.968750,3.906250,3.032128
780,166.992188,18.066406,22.460938,-7.812500,-79.101562,3.029988
781,-248.535156,36.132812,33.203125,-16.113281,-99.121094,3.033894
782,-303.222656,33.691406,33.203125,26.855469,-33.203125,3.037800
783,97.656250,20.996094,23.437500,59.082031,41.015625,3.041706
784,406.250000,20.019531,17.578125,42.480469,22.949219,3.045613
785,236.328125,30.761719,20.996094,-11.718750,-67.382812,3.049519
786,-208.496094,32.714844,27.832031,-25.390625,-89.843750,3.053425
787,-331.542969,29.785156,28.320312,13.183594,27.343750,3.057331
788,33.203125,23.437500,22.949219,60.058594,81.054688,3.061238
789,374.023438,13.183594,20.996094,43.945312,45.898438,3.065144
790,271.484375,22.949219,18.554688,0.000000,23.437500,3.069050
791,-166.503906,32.226562,27.343750,-14.160156,-14.648438,3.072956
792,-354.980469,25.390625,37.109375,9.277344,33.203125,3.071454
793,-38.085938,20.996094,26.855469,66.894531,79.101562,3.075361
794,343.261719,19.042969,22.949219,79.589844,86.914062,3.079267
795,307.617188,19.531250,20.996094,24.414062,41.015625,3.083173
796,-116.210938,33.691406,30.273438,-13.671875,-41.503906,3.087079
797,-356.933594,37.109375,39.550781,20.019531,-11.230469,3.090986
798,-81.054688,27.343750,32.714844,77.636719,66.406250,3.094892
799,327.636719,20.019531,28.808594,70.800781,44.921875,3.098798
800,341.308594,17.089844,27.832031,14.648438,-25.390625,3.102704
801,-59.082031,18.554688,34.179688,-15.136719,-75.195312,3.106611
802,-351.074219,20.996094,41.503906,12.695312,-55.664062,3.110517
803,-145.996094,29.785156,33.691406,68.359375,55.664062,3.114423
804,292.480469,28.320312,24.414062,74.218750,117.675781,3.129284
805,388.183594,20.996094,21.484375,29.296875,104.492188,3.133190
806,20.996094,27.832031,28.808594,-14.160156,23.437500,3.137096
807,-322.265625,32.226562,36.621094,-0.488281,-22.949219,3.141002
808,-191.406250,28.320312,31.738281,57.128906,30.761719,3.144909
809,251.953125,23.925781,23.437500,74.218750,45.410156,3.148815
810,401.367188,20.019531,19.531250,26.855469,-7.812500,3.152721
811,72.753906,29.785156,25.390625,-33.691406,-65.917969,3.156627
812,-304.687500,38.085938,34.179688,-26.367188,-74.218750,3.160534
813,-244.628906,27.832031,30.761719,32.714844,46.386719,3.164440
814,194.824219,21.972656,21.484375,58.593750,121.582031,3.168346
815,408.203125,21.484375,19.531250,20.996094,95.703125,3.172252
816,133.300781,29.296875,23.437500,-19.042969,19.531250,3.169165
817,-271.972656,35.644531,27.832031,-10.253906,-66.406250,3.173071
818,-270.507812,34.667969,32.714844,33.691406,10.253906,3.176977
819,159.179688,31.738281,22.949219,71.289062,83.984375,3.180883
820,445.800781,34.179688,3.417969,64.941406,37.109375,3.184790
821,228.515625,39.550781,15.136719,19.042969,-50.292969,3.188696
822,-229.492188,30.761719,39.550781,-6.835938,-73.730469,3.192602
823,-303.222656,32.714844,44.921875,42.480469,-28.320312,3.196508
824,95.214844,33.691406,37.109375,83.007812,31.738281,3.200415
825,400.390625,20.996094,35.644531,65.917969,20.507812,3.204321
826,235.839844,17.089844,46.386719,11.718750,-45.898438,3.208227
827,-201.660156,21.972656,55.664062,-2.441406,-48.339844,3.212133
828,-338.378906,20.507812,57.617188,45.898438,20.507812,3.229261
829,7.812500,16.113281,53.222656,90.820312,94.238281,3.233168
830,354.492188,10.253906,52.734375,78.613281,86.914062,3.237074
831,253.906250,10.253906,58.105469,20.996094,2.929688,3.240980
832,-182.128906,19.531250,66.894531,-5.371094,-57.128906,3.244886
833,-370.605469,15.625000,77.148438,39.062500,-28.320312,3.248793
834,-67.382812,5.859375,74.218750,89.355469,54.199219,3.252699
835,314.941406,1.464844,69.335938,73.730469,71.777344,3.256605
836,288.085938,5.371094,69.335938,23.925781,2.441406,3.260511
837,-129.882812,18.066406,73.730469,-4.394531,-47.851562,3.264418
838,-376.464844,18.066406,81.542969,36.621094,15.136719,3.268324
839,-131.835938,9.765625,74.707031,88.378906,111.328125,3.272230
840,283.203125,-0.976562,65.917969,74.707031,115.722656,3.269190
841,336.425781,5.371094,60.546875,36.132812,26.855469,3.273096
842,-57.128906,26.367188,64.941406,3.417969,-71.289062,3.277003
843,-358.886719,27.343750,70.312500,20.019531,-68.359375,3.280909
844,-171.875000,16.113281,58.593750,72.753906,25.878906,3.284815
845,269.042969,12.695312,48.828125,93.261719,76.660156,3.288721
846,380.371094,9.277344,56.640625,44.921875,26.855469,3.292628
847,15.136719,25.390625,46.386719,-4.394531,-37.109375,3.296534
848,-332.031250,35.644531,52.246094,11.718750,-25.878906,3.300440
849,-202.148438,20.507812,60.058594,79.589844,62.500000,3.304346
850,239.257812,14.160156,53.222656,91.796875,79.101562,3.308253
851,396.972656,15.136719,47.363281,44.433594,23.925781,3.312159
852,87.402344,26.367188,42.480469,14.648438,-18.066406,3.311417
853,-285.156250,36.132812,50.781250,24.414062,-40.039062,3.315323
854,-231.933594,32.226562,57.128906,67.871094,19.042969,3.319229
855,197.265625,22.460938,50.292969,92.285156,89.355469,3.323136
856,417.480469,14.648438,39.550781,68.847656,49.316406,3.327042
857,146.484375,20.996094,44.433594,21.972656,-45.410156,3.330948
858,-268.554688,30.273438,56.640625,-4.882812,-48.339844,3.334854
859,-284.667969,32.714844,53.710938,46.875000,24.414062,3.338761
860,131.347656,27.832031,34.667969,94.726562,93.261719,3.342667
861,410.644531,19.042969,26.367188,67.382812,91.308594,3.346573
862,208.984375,21.484375,33.203125,17.578125,-19.531250,3.350479
863,-222.656250,28.320312,41.015625,1.953125,-76.660156,3.354386
864,-313.476562,28.320312,43.457031,38.574219,15.136719,3.369301
865,64.941406,25.390625,40.039062,82.031250,101.074219,3.373207
866,380.859375,18.554688,30.761719,52.734375,65.917969,3.377113
867,238.769531,19.042969,38.085938,-15.625000,-22.460938,3.381020
868,-193.359375,29.785156,52.246094,-8.789062,-68.847656,3.384926
869,-346.191406,29.296875,46.386719,33.203125,-10.742188,3.388832
870,6.347656,26.855469,33.203125,83.007812,77.148438,3.392738
871,375.000000,21.972656,21.972656,69.824219,64.453125,3.396645
872,281.250000,20.996094,26.855469,-8.300781,29.785156,3.400551
873,-151.367188,37.109375,39.062500,-22.949219,-1.464844,3.404457
874,-355.468750,33.691406,49.316406,13.671875,52.734375,3.408363
875,-65.917969,20.507812,39.550781,58.593750,145.019531,3.412270
876,335.449219,20.996094,16.113281,74.218750,118.652344,3.409429
877,330.078125,23.925781,30.761719,24.902344,31.738281,3.413335
878,-89.843750,31.250000,38.085938,-11.718750,-23.437500,3.417241
879,-354.492188,38.085938,32.226562,8.789062,21.972656,3.421148
880,-124.511719,25.878906,33.203125,58.593750,110.351562,3.425054
881,302.734375,15.136719,27.832031,59.570312,112.792969,3.428960
882,364.257812,20.019531,31.738281,18.554688,14.160156,3.432866
883,-26.855469,28.320312,40.527344,-13.671875,-54.687500,3.436773
884,-336.425781,35.644531,40.039062,6.347656,-31.250000,3.440679
885,-167.480469,28.320312,41.503906,55.175781,57.128906,3.444585
886,271.972656,14.648438,36.621094,56.152344,82.519531,3.448491
887,390.136719,19.531250,19.531250,23.925781,49.804688,3.452398
888,38.085938,30.273438,27.343750,-9.277344,-5.371094,3.449302
889,-309.082031,38.085938,41.503906,-7.812500,-30.273438,3.453208
890,-210.449219,34.179688,29.785156,57.617188,74.218750,3.457114
891,225.097656,10.253906,21.972656,77.148438,141.113281,3.461021
892,405.273438,9.277344,20.507812,31.738281,69.824219,3.464927
893,91.308594,24.902344,19.531250,-8.789062,-13.183594,3.468833
894,-306.152344,29.785156,27.832031,-4.394531,-20.996094,3.472739
895,-263.671875,28.320312,34.179688,55.175781,73.730469,3.476646
896,166.503906,18.554688,29.296875,83.496094,102.539062,3.480552
897,393.554688,8.789062,20.996094,37.109375,28.808594,3.484458
898,146.484375,20.507812,20.996094,-14.648438,-30.761719,3.488364
899,-263.671875,36.132812,38.085938,-10.253906,-69.824219,3.492271
900,-297.851562,30.273438,39.062500,29.785156,-14.160156,3.509326
901,121.582031,20.507812,19.042969,81.054688,93.750000,3.513232
902,403.320312,11.230469,32.226562,48.828125,89.843750,3.517139
903,210.449219,19.531250,33.691406,-16.113281,-7.812500,3.521045
904,-221.191406,31.738281,31.250000,-8.300781,-36.132812,3.524951
905,-319.824219,28.808594,31.250000,36.132812,34.667969,3.528857
906,62.500000,17.089844,26.855469,74.707031,82.031250,3.532764
907,405.761719,5.859375,34.179688,69.824219,59.082031,3.536670
908,265.136719,19.042969,27.832031,4.882812,-3.906250,3.540576
909,-189.941406,47.363281,22.949219,-37.597656,-74.218750,3.544482
910,-347.656250,53.710938,32.226562,7.324219,-23.925781,3.548389
911,-20.507812,33.203125,31.738281,64.453125,70.800781,3.552295
912,341.308594,18.066406,24.414062,44.433594,85.449219,3.549330
913,288.085938,21.972656,23.925781,-10.742188,29.296875,3.553236
914,-139.648438,27.343750,26.855469,-15.136719,-54.199219,3.557143
915,-369.628906,28.808594,36.132812,8.300781,-39.062500,3.561049
916,-77.636719,24.902344,35.644531,57.128906,17.578125,3.564955
917,330.566406,17.089844,24.902344,70.312500,47.363281,3.568861
918,327.636719,22.460938,21.484375,1.953125,21.972656,3.572768
919,-87.402344,33.203125,27.343750,-34.667969,-69.335938,3.576674
920,-361.816406,27.832031,34.179688,-0.488281,-41.992188,3.580580
921,-130.859375,28.320312,23.437500,66.894531,48.828125,3.584486
922,306.152344,27.343750,18.554688,67.382812,65.429688,3.588393
923,376.953125,25.878906,27.832031,15.136719,44.921875,3.592299
924,-10.253906,32.226562,28.320312,-19.042969,-41.992188,3.589236
925,-329.589844,34.667969,21.972656,-1.464844,-37.109375,3.593143
926,-170.410156,30.761719,28.320312,49.316406,85.937500,3.597049
927,260.253906,25.390625,31.738281,64.941406,121.582031,3.600955
928,397.460938,19.531250,24.414062,27.832031,33.691406,3.604861
929,60.546875,33.203125,23.437500,-10.742188,-67.382812,3.608768
930,-305.175781,48.828125,30.273438,6.835938,-68.847656,3.612674
931,-220.214844,36.132812,34.667969,57.128906,21.484375,3.616580
932,216.796875,18.554688,31.250000,70.800781,47.363281,3.620486
933,408.203125,13.183594,18.066406,38.574219,35.644531,3.624393
934,110.839844,26.855469,15.625000,1.953125,-30.273438,3.628299
935,-284.667969,37.109375,39.062500,15.136719,-62.988281,3.632205
936,-266.113281,29.296875,41.015625,52.246094,31.738281,3.649439
937,167.480469,24.414062,14.160156,81.054688,87.402344,3.653345
938,404.296875,23.437500,14.648438,46.875000,60.058594,3.657251
939,156.738281,29.296875,35.644531,-15.136719,-23.925781,3.661157
940,-255.859375,35.156250,41.992188,-12.207031,-66.406250,3.665064
941,-301.269531,27.343750,36.621094,31.250000,32.226562,3.668970
942,106.933594,21.484375,20.996094,70.800781,95.703125,3.672876
943,399.902344,17.578125,18.066406,41.992188,74.218750,3.676782
944,210.937500,13.671875,34.667969,-9.765625,27.343750,3.680689
945,-226.562500,26.367188,32.714844,-13.671875,2.441406,3.684595
946,-331.054688,27.343750,45.898438,24.414062,67.871094,3.688501
947,41.015625,26.367188,37.109375,66.406250,116.210938,3.692407
948,384.765625,23.925781,12.695312,51.269531,119.628906,3.689512
949,255.371094,20.996094,45.410156,-18.066406,1.464844,3.693418
950,-182.617188,32.714844,38.574219,-32.714844,-70.312500,3.697324
951,-350.097656,37.109375,34.667969,22.460938,23.925781,3.701231
952,-28.808594,24.902344,44.433594,76.660156,110.351562,3.705137
953,344.726562,33.691406,14.160156,62.988281,149.414062,3.709043
954,284.667969,40.527344,19.042969,-0.488281,96.191406,3.712949
955,-142.089844,19.042969,33.691406,-19.042969,20.019531,3.716856
956,-364.746094,16.601562,36.132812,9.277344,47.851562,3.720762
957,-83.496094,19.531250,25.878906,74.707031,91.796875,3.724668
958,310.546875,9.765625,45.898438,56.152344,87.402344,3.728574
959,325.683594,10.253906,41.503906,13.671875,20.019531,3.732481
960,-67.382812,22.949219,23.437500,3.906250,-63.476562,3.734354
961,-357.910156,33.691406,33.203125,8.789062,-25.390625,3.738260
962,-152.832031,40.039062,36.621094,60.058594,67.871094,3.742167
963,280.761719,27.343750,29.296875,66.406250,83.984375,3.746073
964,363.281250,11.718750,15.625000,20.507812,11.718750,3.749979
965,-12.207031,29.296875,24.902344,-10.742188,-79.589844,3.753885
966,-334.472656,35.644531,48.339844,7.812500,-35.156250,3.757792
967,-193.847656,24.902344,31.250000,62.011719,68.359375,3.761698
968,244.628906,13.183594,20.019531,78.125000,61.035156,3.765604
969,386.230469,13.183594,27.343750,21.484375,15.625000,3.769510
970,41.503906,35.644531,20.019531,-24.902344,-34.667969,3.773417
971,-312.500000,32.714844,34.667969,7.324219,-42.968750,3.777323
972,-236.816406,29.296875,39.550781,46.875000,38.574219,3.789496
973,192.871094,14.160156,28.808594,79.101562,83.984375,3.793402
974,390.136719,9.277344,20.996094,52.246094,14.648438,3.797308
975,106.933594,16.113281,35.644531,-31.738281,-67.871094,3.801214
976,-278.808594,25.390625,36.132812,-29.785156,-34.179688,3.805121
977,-271.972656,35.644531,20.996094,43.457031,62.988281,3.809027
978,145.019531,30.273438,17.089844,68.847656,116.210938,3.812933
979,397.460938,22.460938,12.695312,34.179688,68.847656,3.816839
980,154.296875,18.554688,42.968750,-33.203125,6.347656,3.820746
981,-273.437500,25.390625,48.339844,-56.152344,-16.601562,3.824652
982,-322.265625,31.250000,19.042969,23.925781,11.230469,3.828558
983,78.125000,12.695312,20.996094,72.753906,83.496094,3.832464
984,368.164062,30.761719,18.066406,26.367188,116.699219,3.829566
985,208.984375,42.968750,18.066406,-10.253906,15.625000,3.833472
986,-219.726562,29.296875,40.039062,-20.996094,-50.781250,3.837378
987,-338.378906,34.667969,39.062500,26.367188,20.996094,3.841284
988,24.414062,18.554688,28.320312,82.031250,91.308594,3.845191
989,369.628906,11.230469,12.207031,64.453125,66.894531,3.849097
990,281.250000,9.277344,18.066406,20.996094,-26.855469,3.853003
991,-156.738281,27.832031,32.226562,-5.371094,-71.289062,3.856909
992,-337.402344,40.039062,24.902344,41.015625,-17.089844,3.860816
993,-27.832031,28.320312,29.296875,79.589844,76.171875,3.864722
994,354.492188,26.855469,22.460938,61.523438,49.316406,3.868628
995,324.707031,20.507812,20.996094,23.925781,-13.671875,3.872534
996,-105.468750,26.855469,26.367188,-4.394531,-51.757812,3.869398
997,-352.539062,41.503906,28.320312,19.042969,-53.222656,3.873305
998,-88.867188,37.597656,24.414062,78.125000,38.085938,3.877211
999,327.148438,28.808594,17.578125,65.429688,64.941406,3.881117
1000,358.886719,29.785156,18.066406,15.136719,17.089844,3.885023
1001,-45.898438,39.550781,22.949219,-17.578125,-40.039062,3.888930
1002,-346.191406,37.597656,33.691406,-3.417969,-15.136719,3.892836
1003,-146.972656,27.832031,30.761719,54.687500,57.617188,3.896742
1004,293.457031,19.042969,14.648438,62.011719,84.960938,3.900648
1005,386.230469,18.066406,11.230469,15.136719,6.835938,3.904555
1006,10.253906,34.179688,23.437500,-41.992188,-68.359375,3.908461
1007,-341.308594,39.550781,24.414062,-32.226562,-1.953125,3.912367
1008,-219.238281,26.367188,31.738281,36.132812,97.167969,3.929419
1009,223.632812,19.531250,37.597656,54.199219,130.859375,3.933326
1010,393.066406,23.925781,20.507812,25.878906,88.378906,3.937232
1011,74.218750,27.832031,18.066406,-13.671875,12.695312,3.941138
1012,-305.664062,33.691406,28.808594,-3.906250,8.789062,3.945044
1013,-241.699219,39.062500,35.644531,50.781250,78.613281,3.948951
1014,201.171875,28.808594,15.136719,89.355469,126.953125,3.952857
1015,408.203125,7.324219,18.554688,43.945312,108.886719,3.956763
1016,125.488281,19.531250,43.945312,-22.460938,16.601562,3.960669
1017,-279.296875,38.574219,39.062500,-7.324219,-39.062500,3.964576
1018,-274.902344,37.109375,21.484375,59.082031,34.179688,3.968482
1019,147.949219,27.832031,19.531250,83.984375,107.910156,3.972388
1020,404.785156,21.484375,16.601562,42.968750,30.273438,3.971545
1021,189.453125,30.273438,18.554688,-3.417969,-65.917969,3.975451
1022,-228.515625,37.109375,34.179688,2.441406,-38.085938,3.979358
1023,-311.523438,34.179688,41.015625,37.597656,36.132812,3.983264
1024,75.195312,25.390625,22.460938,73.730469,101.562500,3.987170
1025,394.531250,10.253906,29.785156,68.847656,102.050781,3.991076
1026,244.628906,19.531250,35.644531,7.812500,-18.554688,3.994983
1027,-192.871094,29.785156,21.972656,-10.742188,-112.304688,3.998889
1028,-332.031250,14.160156,32.226562,41.503906,-29.296875,4.002795
1029,27.343750,14.648438,39.062500,86.914062,68.359375,4.006701
1030,369.628906,17.578125,42.480469,50.292969,49.316406,4.010608
1031,279.296875,34.179688,17.089844,-0.976562,-57.128906,4.014514
1032,-145.019531,47.851562,9.277344,-26.855469,-97.656250,4.009417
1033,-348.144531,42.480469,32.226562,-20.507812,0.488281,4.013323
1034,-46.386719,32.714844,27.343750,37.597656,100.097656,4.017229
1035,349.609375,25.390625,1.953125,49.804688,99.121094,4.021135
1036,321.289062,26.855469,13.183594,-25.390625,-17.578125,4.025042
1037,-89.843750,35.644531,10.742188,-36.132812,-73.730469,4.028948
1038,-352.539062,44.921875,9.765625,1.464844,21.972656,4.032854
1039,-119.628906,41.503906,14.648438,21.484375,85.937500,4.036760
1040,316.894531,37.597656,2.441406,48.828125,77.636719,4.040667
1041,344.726562,33.203125,13.671875,2.441406,-16.113281,4.044573
1042,-55.664062,32.714844,36.621094,-46.386719,-100.097656,4.048479
1043,-347.167969,36.132812,18.066406,-31.738281,-17.089844,4.052385
1044,-169.433594,50.292969,-11.230469,25.878906,43.457031,4.069333
1045,268.554688,33.691406,1.464844,63.964844,37.109375,4.073239
1046,388.671875,10.253906,15.625000,10.742188,31.250000,4.077145
1047,26.367188,27.832031,12.207031,-37.597656,-46.875000,4.081052
1048,-322.265625,34.179688,26.855469,4.882812,-54.199219,4.084958
1049,-202.636719,38.085938,32.714844,53.222656,42.480469,4.088864
1050,244.140625,39.550781,4.882812,73.242188,108.886719,4.092770
1051,420.410156,33.691406,-5.859375,49.316406,46.875000,4.096677
1052,101.074219,35.156250,19.531250,-3.417969,-65.429688,4.100583
1053,-297.851562,51.269531,47.851562,-15.625000,-65.917969,4.104489
1054,-253.417969,45.410156,35.156250,26.855469,7.812500,4.108395
1055,199.218750,16.113281,21.972656,68.359375,83.496094,4.112302
1056,417.968750,15.625000,19.531250,33.691406,80.078125,4.109418
1057,145.019531,26.367188,31.250000,-17.089844,-10.742188,4.113324
1058,-255.371094,41.503906,28.320312,-5.371094,-41.015625,4.117230
1059,-274.902344,52.246094,16.601562,42.968750,31.738281,4.121136
1060,123.535156,31.250000,15.136719,63.476562,112.304688,4.125043
1061,412.109375,9.277344,6.835938,56.640625,85.937500,4.128949
1062,214.843750,27.343750,8.300781,13.671875,-8.300781,4.132855
1063,-231.933594,46.386719,31.738281,-18.066406,-54.687500,4.136761
1064,-325.683594,25.878906,59.082031,12.207031,-8.789062,4.140668
1065,72.753906,20.019531,24.902344,72.265625,95.214844,4.144574
1066,400.878906,38.085938,-2.441406,59.570312,81.054688,4.148480
1067,255.371094,45.898438,11.230469,8.789062,-2.929688,4.152386
1068,-187.500000,54.687500,26.367188,-19.042969,-26.855469,4.149904
1069,-329.589844,45.898438,22.949219,13.671875,-2.929688,4.153810
1070,32.226562,24.414062,14.160156,74.218750,70.312500,4.157716
1071,398.437500,22.460938,15.136719,64.941406,68.847656,4.161623
1072,327.148438,27.832031,19.531250,20.019531,-23.925781,4.165529
1073,-112.792969,37.109375,26.367188,-1.464844,-79.101562,4.169435
1074,-335.449219,35.156250,32.226562,23.925781,-14.648438,4.173341
1075,-44.921875,22.949219,20.507812,68.359375,65.429688,4.177248
1076,335.937500,30.273438,13.671875,54.199219,94.238281,4.181154
1077,318.359375,39.550781,20.019531,8.789062,36.132812,4.185060
1078,-92.285156,35.644531,25.390625,-27.343750,-41.992188,4.188966
1079,-363.769531,43.945312,46.875000,-19.042969,-12.207031,4.192873
1080,-104.003906,32.226562,39.550781,74.707031,75.683594,4.209263
1081,340.820312,23.437500,13.671875,102.050781,88.867188,4.213169
1082,367.675781,30.761719,16.113281,22.460938,31.738281,4.217075
1083,-45.410156,34.667969,20.019531,-30.761719,-33.203125,4.220981
1084,-355.468750,31.250000,29.296875,1.464844,-26.855469,4.224888
1085,-178.222656,34.179688,36.621094,52.734375,67.871094,4.228794
1086,256.835938,28.808594,18.554688,62.988281,98.144531,4.232700
1087,362.304688,30.273438,-7.324219,8.300781,27.832031,4.236606
1088,3.906250,42.968750,29.296875,-64.941406,-61.035156,4.240513
1089,-346.191406,47.851562,33.203125,-47.851562,-46.875000,4.244419
1090,-243.652344,37.109375,2.441406,32.226562,69.335938,4.248325
1091,188.964844,26.367188,1.464844,53.222656,183.593750,4.252231
1092,371.582031,25.878906,2.929688,-0.976562,134.765625,4.249369
1093,76.660156,29.785156,15.625000,-38.574219,21.484375,4.253275
1094,-298.339844,36.621094,14.648438,-13.671875,1.953125,4.257181
1095,-276.855469,41.015625,21.972656,24.414062,46.875000,4.261088
1096,148.925781,27.343750,18.554688,46.875000,123.046875,4.264994
1097,404.296875,25.878906,1.464844,42.480469,69.824219,4.268900
1098,152.832031,36.621094,-0.976562,1.464844,-49.316406,4.272806
1099,-288.574219,21.972656,48.339844,-54.199219,-26.855469,4.276713
1100,-325.683594,28.320312,46.386719,-20.019531,83.496094,4.280619
1101,95.214844,39.062500,-11.230469,70.312500,143.554688,4.284525
1102,380.371094,12.207031,12.207031,28.808594,93.750000,4.288431
1103,224.609375,17.089844,20.507812,-36.132812,-38.574219,4.292338
1104,-222.656250,27.832031,5.859375,-18.066406,-80.078125,4.289479
1105,-328.613281,36.132812,12.695312,41.992188,-1.464844,4.293386
1106,60.546875,35.156250,16.601562,74.707031,51.269531,4.297292
1107,395.996094,13.671875,7.324219,51.269531,43.457031,4.301198
1108,263.183594,24.902344,6.835938,-2.441406,-12.207031,4.305104
1109,-182.617188,39.550781,20.507812,-15.136719,-66.894531,4.309011
1110,-325.195312,34.667969,31.250000,31.250000,-11.230469,4.312917
1111,-21.484375,40.039062,34.667969,44.921875,68.847656,4.316823
1112,340.820312,16.601562,41.015625,22.949219,26.855469,4.320729
1113,292.968750,21.972656,17.578125,8.300781,-56.152344,4.324636
1114,-159.667969,47.363281,12.207031,-27.832031,-75.195312,4.328542
1115,-364.746094,53.710938,28.808594,-7.324219,-25.878906,4.332448
1116,-55.664062,41.503906,25.878906,63.964844,25.390625,4.349338
1117,352.050781,25.390625,14.160156,63.964844,58.105469,4.353244
1118,326.171875,36.621094,9.765625,25.390625,0.000000,4.357151
1119,-97.656250,33.203125,31.738281,-20.996094,-91.796875,4.361057
1120,-342.773438,50.781250,32.226562,6.347656,-45.410156,4.364963
1121,-144.531250,70.312500,4.394531,66.406250,25.878906,4.368869
1122,250.488281,35.156250,4.394531,58.593750,48.828125,4.372776
1123,368.164062,18.554688,27.343750,10.253906,24.414062,4.376682
1124,-2.929688,44.433594,29.296875,-23.437500,-90.332031,4.380588
1125,-377.929688,54.687500,31.738281,-26.367188,-92.773438,4.384494
1126,-206.054688,55.175781,17.089844,36.132812,26.855469,4.388401
1127,248.535156,44.433594,3.417969,83.984375,90.820312,4.392307
1128,348.632812,29.296875,24.414062,35.156250,83.984375,4.389224
1129,19.531250,29.785156,23.925781,-16.601562,2.441406,4.393131
1130,-300.781250,27.832031,30.761719,3.417969,-16.601562,4.397037
1131,-194.335938,50.292969,31.250000,62.011719,32.714844,4.400943
1132,217.773438,34.667969,21.972656,79.101562,97.167969,4.404849
1133,430.175781,-1.464844,19.531250,68.359375,75.195312,4.408756
1134,141.601562,20.019531,20.996094,11.230469,-11.230469,4.412662
1135,-254.882812,28.320312,29.296875,6.347656,-24.414062,4.416568
1136,-243.164062,30.761719,39.062500,58.105469,69.335938,4.420474
1137,163.085938,25.878906,31.738281,74.218750,116.699219,4.424381
1138,432.617188,18.554688,16.113281,51.757812,81.542969,4.428287
1139,147.949219,29.296875,38.085938,-37.109375,-28.320312,4.432193
1140,-324.218750,29.296875,54.199219,-69.335938,-86.914062,4.431522
1141,-299.804688,36.132812,27.343750,22.949219,-12.207031,4.435428
1142,99.609375,40.039062,3.906250,80.566406,52.246094,4.439335
1143,375.488281,4.394531,12.695312,50.781250,59.570312,4.443241
1144,239.257812,15.136719,30.761719,-12.207031,-4.882812,4.447147
1145,-213.378906,40.039062,34.667969,-3.417969,-46.875000,4.451053
1146,-330.078125,50.292969,39.062500,51.757812,-2.441406,4.454960
1147,58.105469,41.992188,31.738281,75.683594,3.417969,4.458866
1148,417.968750,9.277344,11.230469,90.820312,-11.718750,4.462772
1149,272.949219,28.808594,15.136719,7.324219,-65.917969,4.466678
1150,-163.085938,37.109375,30.273438,-42.968750,-127.929688,4.470585
1151,-335.937500,58.105469,23.925781,39.550781,-55.175781,4.474491
1152,-73.242188,54.687500,33.691406,60.058594,70.800781,4.489319
1153,314.941406,10.253906,38.574219,25.878906,116.699219,4.493225
1154,302.734375,28.320312,18.554688,8.300781,52.734375,4.497131
1155,-140.625000,37.597656,32.226562,5.371094,-12.695312,4.501038
1156,-395.019531,32.226562,37.109375,20.507812,40.039062,4.504944
1157,-81.542969,28.320312,29.785156,83.984375,98.144531,4.508850
1158,293.945312,0.000000,54.199219,65.429688,73.242188,4.512756
1159,269.531250,4.394531,67.382812,-11.718750,18.554688,4.516663
1160,-88.867188,31.738281,38.574219,-19.042969,-45.898438,4.520569
1161,-359.863281,48.339844,32.226562,28.320312,-37.109375,4.524475
1162,-159.179688,25.878906,54.687500,59.570312,51.269531,4.528381
1163,303.222656,-1.464844,44.433594,83.496094,85.937500,4.532288
1164,363.281250,13.183594,24.902344,52.246094,17.578125,4.529280
1165,-16.601562,3.417969,52.734375,-31.738281,-94.238281,4.533186
1166,-353.027344,29.296875,50.292969,-18.554688,-45.898438,4.537093
1167,-244.140625,39.550781,45.898438,48.339844,62.500000,4.540999
1168,250.000000,-1.953125,40.039062,65.917969,85.449219,4.544905
1169,406.738281,9.765625,30.761719,39.550781,55.175781,4.548811
1170,17.089844,31.250000,55.175781,-34.179688,-48.828125,4.552718
1171,-337.402344,60.546875,43.457031,-36.621094,-75.195312,4.556624
1172,-213.378906,58.593750,20.507812,67.382812,-25.390625,4.560530
1173,213.867188,10.742188,47.851562,77.148438,10.253906,4.564436
1174,383.789062,27.343750,34.179688,-0.488281,22.460938,4.568343
1175,117.187500,34.667969,31.738281,-7.324219,-34.667969,4.572249
1176,-273.925781,30.273438,62.988281,-3.417969,-31.250000,4.589375
1177,-245.117188,31.738281,31.738281,55.664062,73.242188,4.593281
1178,179.687500,41.015625,20.019531,97.656250,123.535156,4.597187
1179,391.601562,34.179688,26.367188,44.921875,77.636719,4.601094
1180,164.062500,17.089844,48.339844,-7.324219,-50.781250,4.605000
1181,-217.285156,34.179688,58.105469,14.648438,-102.050781,4.608906
1182,-286.621094,59.082031,42.480469,57.617188,-4.882812,4.612812
1183,72.265625,51.757812,25.390625,68.847656,91.796875,4.616719
1184,391.113281,18.066406,35.156250,55.664062,119.628906,4.620625
1185,252.441406,19.042969,50.781250,5.371094,17.578125,4.624531
1186,-203.613281,41.015625,35.644531,-2.929688,-63.964844,4.628437
1187,-336.914062,38.574219,50.781250,43.945312,15.136719,4.632344
1188,5.371094,36.132812,36.132812,91.796875,67.871094,4.628973
1189,328.125000,26.367188,25.390625,66.894531,58.105469,4.632879
1190,246.582031,13.183594,46.386719,-11.718750,3.417969,4.636786
1191,-153.808594,33.691406,43.457031,-20.019531,-44.433594,4.640692
1192,-320.312500,31.250000,41.992188,40.527344,-10.742188,4.644598
1193,-28.808594,20.019531,42.968750,75.683594,70.800781,4.648504
1194,344.726562,17.578125,23.925781,49.316406,77.148438,4.652411
1195,326.660156,10.742188,29.296875,10.253906,4.394531,4.656317
1196,-104.003906,32.714844,27.832031,-16.601562,-25.878906,4.660223
1197,-356.933594,36.621094,26.855469,-9.277344,-5.859375,4.664129
1198,-84.960938,30.761719,51.757812,62.011719,43.945312,4.668036
1199,344.238281,22.949219,22.949219,70.800781,70.312500,4.671942
1200,334.960938,41.992188,12.695312,2.929688,-9.765625,4.671382
1201,-114.257812,53.710938,26.367188,-44.921875,-125.488281,4.675288
1202,-324.707031,15.136719,29.296875,25.878906,-90.332031,4.679194
1203,-105.957031,22.949219,60.058594,83.007812,13.671875,4.683100
1204,250.976562,30.761719,54.687500,41.992188,62.500000,4.687007
1205,382.324219,10.742188,16.601562,41.503906,6.347656,4.690913
1206,44.921875,15.625000,28.808594,15.136719,-95.214844,4.694819
1207,-333.007812,27.343750,48.828125,-1.953125,-29.296875,4.698725
1208,-205.078125,27.343750,44.433594,52.734375,83.984375,4.702632
1209,246.582031,24.414062,35.644531,69.335938,104.003906,4.706538
1210,363.281250,30.761719,33.691406,22.949219,68.359375,4.710444
1211,50.781250,37.597656,45.898438,-0.488281,-7.324219,4.714350
1212,-304.199219,29.785156,53.710938,-12.207031,-10.742188,4.729286
1213,-280.273438,37.597656,17.089844,17.089844,69.824219,4.733192
1214,164.062500,37.109375,9.765625,66.406250,130.859375,4.737098
1215,404.296875,18.554688,19.042969,59.570312,101.562500,4.741005
1216,129.394531,5.371094,54.199219,-2.441406,-20.019531,4.744911
1217,-264.160156,29.785156,47.851562,-15.625000,-76.171875,4.748817
1218,-282.714844,36.132812,26.367188,34.667969,10.742188,4.752723
1219,133.300781,20.019531,17.089844,66.894531,72.753906,4.756630
1220,411.621094,0.000000,42.480469,53.222656,62.988281,4.760536
1221,177.246094,13.183594,34.179688,-10.742188,-11.230469,4.764442
1222,-258.300781,46.386719,5.371094,-39.062500,-33.691406,4.768348
1223,-276.855469,32.714844,22.460938,45.410156,28.320312,4.772255
1224,95.214844,14.648438,24.902344,83.007812,109.863281,4.769226
1225,337.402344,22.949219,30.273438,9.277344,92.285156,4.773132
1226,218.261719,25.390625,46.875000,-14.648438,-31.738281,4.777039
1227,-188.964844,35.644531,43.457031,-6.835938,-71.777344,4.780945
1228,-302.734375,27.832031,33.691406,31.738281,-7.812500,4.784851
1229,41.503906,29.296875,34.179688,59.082031,59.082031,4.788757
1230,379.394531,38.085938,0.976562,70.312500,60.546875,4.792664
1231,304.687500,19.042969,28.808594,29.296875,1.464844,4.796570
1232,-137.207031,21.972656,47.363281,-19.531250,-54.687500,4.800476
1233,-337.890625,29.785156,28.808594,18.066406,-10.742188,4.804382
1234,-16.113281,35.156250,14.160156,82.519531,90.820312,4.808289
1235,373.046875,26.367188,30.761719,82.519531,101.562500,4.812195
1236,331.054688,27.832031,25.390625,23.925781,60.546875,4.809141
1237,-108.886719,34.667969,15.136719,3.417969,2.441406,4.813048
1238,-339.843750,25.878906,28.320312,35.156250,31.250000,4.816954
1239,-79.589844,24.902344,22.460938,85.937500,85.937500,4.820860
1240,336.914062,9.277344,24.414062,102.050781,58.593750,4.824766
1241,386.230469,10.253906,33.203125,61.035156,-6.347656,4.828673
1242,-10.253906,34.667969,28.320312,11.718750,-104.980469,4.832579
1243,-325.195312,38.574219,21.972656,18.554688,-61.035156,4.836485
1244,-142.089844,32.714844,20.507812,63.476562,62.500000,4.840391
1245,293.457031,22.949219,9.765625,74.707031,98.144531,4.844298
1246,399.902344,21.484375,4.394531,31.738281,56.640625,4.848204
1247,41.503906,36.621094,6.835938,-8.789062,-32.226562,4.852110
1248,-295.410156,41.503906,9.277344,1.464844,-23.437500,4.869159
1249,-183.593750,36.132812,5.859375,49.804688,74.218750,4.873065
1250,249.023438,29.296875,-8.789062,62.500000,131.835938,4.876971
1251,418.945312,23.437500,-12.695312,21.484375,64.941406,4.880878
1252,90.820312,30.273438,-4.882812,-33.203125,-47.851562,4.884784
1253,-282.714844,43.457031,3.417969,-24.902344,-42.968750,4.888690
1254,-208.984375,43.457031,4.882812,31.250000,14.648438,4.892596
1255,225.097656,29.785156,-6.347656,54.687500,47.851562,4.896503
1256,440.429688,21.484375,-13.183594,18.554688,64.941406,4.900409
1257,166.015625,30.761719,-5.859375,-26.367188,19.531250,4.904315
1258,-253.417969,42.968750,5.859375,-14.648438,-19.042969,4.908221
1259,-276.855469,42.968750,9.765625,40.039062,28.320312,4.912128
1260,140.625000,31.250000,2.929688,76.660156,92.285156,4.910805
1261,422.851562,22.460938,-2.929688,50.292969,89.843750,4.914711
1262,214.843750,28.808594,3.906250,-6.347656,39.062500,4.918618
1263,-220.214844,34.667969,16.601562,-12.695312,-16.113281,4.922524
1264,-302.734375,32.714844,19.531250,42.480469,0.000000,4.926430
1265,80.566406,22.949219,10.742188,83.007812,92.285156,4.930336
1266,392.578125,20.507812,4.882812,62.011719,114.746094,4.934243
1267,251.464844,31.250000,11.230469,14.160156,36.132812,4.938149
1268,-174.316406,40.527344,23.925781,0.976562,-44.921875,4.942055
1269,-324.707031,37.597656,26.855469,41.015625,30.273438,4.945961
1270,17.089844,28.320312,17.089844,83.984375,129.394531,4.949868
1271,382.324219,20.019531,12.695312,75.683594,112.304688,4.953774
1272,309.082031,25.390625,16.113281,22.460938,57.617188,4.949292
1273,-119.140625,36.621094,22.460938,-5.371094,-19.042969,4.953198
1274,-327.148438,37.597656,28.320312,27.832031,-3.906250,4.957104
1275,-29.785156,31.738281,21.972656,75.195312,76.660156,4.961010
1276,366.699219,22.460938,11.718750,71.777344,114.746094,4.964917
1277,347.167969,23.437500,15.136719,25.878906,20.507812,4.968823
1278,-81.542969,32.226562,22.460938,-3.906250,-72.265625,4.972729
1279,-342.773438,38.085938,25.390625,17.578125,-18.554688,4.976635
1280,-91.796875,34.667969,25.390625,71.777344,26.855469,4.980542
1281,332.031250,25.878906,13.183594,79.589844,30.273438,4.984448
1282,379.882812,31.738281,7.812500,31.738281,-8.300781,4.988354
1283,-19.531250,42.968750,16.601562,-8.300781,-65.429688,4.992260
1284,-338.867188,45.410156,23.437500,5.859375,-25.390625,5.009140
1285,-160.644531,35.156250,20.996094,61.035156,66.406250,5.013046
1286,276.855469,22.949219,15.625000,80.566406,94.726562,5.016952
1287,385.742188,24.414062,13.183594,41.015625,47.363281,5.020859
1288,33.691406,39.550781,17.578125,-3.417969,-66.894531,5.024765
1289,-312.011719,51.757812,28.808594,12.695312,-76.171875,5.028671
1290,-203.125000,42.480469,28.320312,62.500000,65.917969,5.032577
1291,232.910156,23.925781,16.601562,74.707031,139.648438,5.036484
1292,408.203125,20.019531,13.183594,45.410156,84.960938,5.040390
1293,97.167969,34.667969,20.507812,-0.488281,-35.156250,5.044296
1294,-287.109375,41.015625,28.320312,2.929688,-18.554688,5.048202
1295,-236.328125,40.527344,29.785156,53.710938,89.843750,5.052109
