,TP9,AF7,AF8,TP10,Right AUX,timestamps
0,-404.296875,-804.199219,-685.058594,624.023438,-801.269531,0.000000
1,206.542969,-918.945312,-680.175781,-797.363281,-480.957031,0.003906
2,-313.476562,-815.917969,-813.476562,117.675781,-642.578125,0.007812
3,-1000.000000,-635.742188,-868.164062,-1000.000000,-895.019531,0.011719
4,-976.562500,-621.093750,-829.589844,-878.417969,-1000.000000,0.015625
5,-592.773438,-765.136719,-663.085938,394.042969,-788.085938,0.019531
6,0.000000,0.000000,0.000000,0.000000,0.000000,0.023438
7,-0.488281,0.976562,-0.488281,-12.695312,-0.976562,0.027344
8,-28.320312,-23.437500,-17.089844,37.597656,-23.437500,0.031250
9,134.765625,39.062500,36.621094,-41.015625,56.152344,0.035156
10,-590.820312,-237.792969,-232.421875,26.367188,-307.128906,0.039062
11,-30.761719,-819.824219,-603.515625,776.855469,-768.554688,0.042969
12,493.164062,-979.003906,-695.312500,-833.496094,-512.695312,0.039991
13,-981.445312,-801.757812,-811.035156,96.679688,-418.945312,0.043897
14,-939.941406,-580.078125,-835.937500,-1000.000000,-789.062500,0.047804
15,-1000.000000,-547.851562,-717.773438,-775.878906,-867.187500,0.051710
16,-79.589844,-762.695312,-619.140625,530.273438,-737.792969,0.055616
17,589.355469,-943.847656,-675.292969,-780.761719,-436.035156,0.059522
18,-914.062500,-813.476562,-763.183594,166.503906,-234.863281,0.063429
19,-962.402344,-622.558594,-831.542969,-1000.000000,-774.902344,0.067335
20,-1000.000000,-553.222656,-674.804688,-852.050781,-809.570312,0.071241
21,-121.093750,-719.238281,-521.972656,431.152344,-461.425781,0.075147
22,792.968750,-943.359375,-687.988281,-763.183594,-533.691406,0.079054
23,-726.562500,-845.214844,-853.027344,178.710938,-485.839844,0.082960
24,-1000.000000,-611.816406,-851.562500,-1000.000000,-663.085938,0.099983
25,-1000.000000,-540.527344,-707.519531,-1000.000000,-798.828125,0.103889
26,-288.574219,-724.121094,-619.140625,49.316406,-844.726562,0.107795
27,966.796875,-965.332031,-700.195312,-757.812500,-722.167969,0.111701
28,-420.410156,-903.320312,-826.660156,272.949219,-504.882812,0.115608
29,-1000.000000,-637.695312,-833.984375,-980.957031,-640.136719,0.119514
30,-1000.000000,-520.507812,-697.753906,-1000.000000,-774.902344,0.123420
31,-495.117188,-666.015625,-541.992188,-14.160156,-579.589844,0.127326
32,-977.539062,-930.175781,-641.113281,-773.437500,-567.382812,0.131233
33,-122.070312,-927.246094,-826.171875,388.671875,-579.101562,0.135139
34,-1000.000000,-678.710938,-882.812500,-902.343750,-770.019531,0.139045
35,-1000.000000,-540.527344,-804.687500,-1000.000000,-972.167969,0.142951
36,-706.542969,-667.968750,-657.226562,-177.246094,-928.222656,0.140316
37,895.019531,-919.921875,-686.523438,-827.636719,-791.503906,0.144222
38,99.121094,-952.148438,-812.011719,580.566406,-523.437500,0.148128
39,-1000.000000,-717.285156,-844.238281,-769.531250,-579.101562,0.152034
40,-953.125000,-540.039062,-763.183594,-1000.000000,-793.457031,0.155941
41,-946.289062,-627.929688,-621.582031,-197.265625,-740.234375,0.159847
42,593.750000,-866.699219,-635.253906,-881.835938,-624.023438,0.163753
43,274.902344,-930.175781,-794.921875,776.367188,-485.839844,0.167659
44,-1000.000000,-725.097656,-866.699219,-553.710938,-568.359375,0.171566
45,-922.363281,-572.753906,-833.984375,-1000.000000,-962.402344,0.175472
46,-1000.000000,-617.187500,-605.957031,-217.285156,-699.707031,0.179378
47,328.125000,-847.656250,-571.777344,-938.964844,-493.652344,0.183284
48,349.121094,-967.773438,-796.386719,933.105469,-574.707031,0.180049
49,-1000.000000,-752.929688,-884.765625,-314.941406,-616.210938,0.183955
50,-910.156250,-561.035156,-859.375000,-1000.000000,-919.921875,0.187861
51,-1000.000000,-608.886719,-703.125000,-388.183594,-958.496094,0.191767
52,109.863281,-848.632812,-639.160156,929.199219,-843.261719,0.195674
53,346.191406,-973.144531,-715.332031,-916.015625,-484.375000,0.199580
54,-1000.000000,-770.019531,-782.226562,-60.546875,-350.097656,0.203486
55,-908.203125,-570.800781,-830.566406,-1000.000000,-815.429688,0.207392
56,-1000.000000,-569.335938,-678.710938,-458.496094,-820.800781,0.211299
57,-35.644531,-777.343750,-572.265625,870.117188,-555.175781,0.215205
58,418.457031,-979.980469,-753.906250,-860.351562,-584.960938,0.219111
59,-1000.000000,-827.636719,-864.257812,63.964844,-573.242188,0.223017
60,-929.199219,-604.980469,-866.699219,-1000.000000,-851.074219,0.239963
61,-1000.000000,-585.449219,-738.769531,-776.855469,-958.984375,0.243870
62,-75.683594,-783.691406,-642.089844,528.808594,-839.355469,0.247776
63,565.917969,-973.144531,-737.304688,-782.714844,-663.085938,0.251682
64,-930.175781,-838.378906,-844.238281,144.042969,-527.343750,0.255588
65,-957.031250,-602.539062,-846.191406,-1000.000000,-761.718750,0.259495
66,-1000.000000,-541.503906,-687.988281,-854.003906,-775.878906,0.263401
67,-129.882812,-719.726562,-552.734375,423.828125,-497.070312,0.267307
68,755.371094,-955.078125,-710.449219,-762.695312,-546.386719,0.271213
69,-759.277344,-856.933594,-860.839844,164.062500,-516.601562,0.275120
70,-993.164062,-620.117188,-865.234375,-1000.000000,-689.453125,0.279026
71,-1000.000000,-560.058594,-765.625000,-1000.000000,-974.609375,0.282932
72,-313.476562,-729.980469,-640.625000,41.992188,-992.675781,0.279952
73,913.574219,-963.378906,-698.730469,-755.859375,-819.335938,0.283859
74,-471.679688,-899.902344,-828.613281,234.375000,-586.914062,0.287765
75,-1000.000000,-651.367188,-885.253906,-987.304688,-789.062500,0.291671
76,-1000.000000,-543.945312,-790.039062,-1000.000000,-983.886719,0.295577
77,-516.113281,-683.105469,-623.535156,-84.960938,-834.960938,0.299484
78,973.632812,-916.503906,-650.390625,-778.808594,-576.171875,0.303390
79,-185.058594,-900.390625,-803.710938,387.207031,-480.957031,0.307296
80,-1000.000000,-685.058594,-880.371094,-918.945312,-779.785156,0.311202
81,-992.675781,-559.570312,-808.105469,-1000.000000,-1000.000000,0.315109
82,-777.343750,-645.507812,-581.542969,-139.648438,-680.664062,0.319015
83,805.175781,-884.765625,-614.257812,-813.476562,-529.785156,0.322921
84,77.148438,-916.992188,-820.800781,548.339844,-557.617188,0.319904
85,-1000.000000,-684.082031,-859.863281,-796.875000,-652.832031,0.323810
86,-935.546875,-549.804688,-799.316406,-1000.000000,-923.828125,0.327717
87,-998.535156,-657.226562,-658.203125,-213.378906,-949.707031,0.331623
88,497.070312,-901.367188,-651.855469,-874.511719,-809.570312,0.335529
89,232.421875,-942.871094,-759.277344,743.164062,-444.335938,0.339435
90,-1000.000000,-705.566406,-832.519531,-611.816406,-527.832031,0.343342
91,-900.878906,-546.875000,-853.515625,-1000.000000,-1000.000000,0.347248
92,-1000.000000,-594.726562,-645.019531,-232.421875,-751.953125,0.351154
93,189.941406,-815.917969,-550.292969,-922.851562,-464.355469,0.355060
94,304.687500,-936.035156,-750.000000,868.164062,-555.175781,0.358967
95,-1000.000000,-750.488281,-857.910156,-428.222656,-715.820312,0.362873
96,-901.855469,-573.730469,-844.238281,-1000.000000,-959.960938,0.380456
97,-1000.000000,-611.328125,-708.496094,-418.945312,-979.980469,0.384362
98,-14.160156,-828.613281,-648.437500,933.105469,-876.953125,0.388269
99,311.035156,-942.382812,-759.277344,-975.585938,-581.054688,0.392175
100,-1000.000000,-756.835938,-833.496094,-205.078125,-460.937500,0.396081
101,-916.015625,-568.847656,-817.871094,-1000.000000,-780.761719,0.399987
102,-1000.000000,-572.265625,-639.160156,-488.769531,-725.097656,0.403894
103,-61.035156,-772.460938,-538.085938,856.445312,-458.984375,0.407800
104,365.234375,-941.406250,-722.656250,-897.460938,-513.671875,0.411706
105,-1000.000000,-790.527344,-864.746094,-50.292969,-576.660156,0.415612
106,-925.292969,-589.843750,-874.023438,-1000.000000,-859.863281,0.419519
107,-1000.000000,-581.542969,-736.328125,-792.480469,-983.398438,0.423425
108,-90.820312,-784.667969,-628.417969,497.558594,-919.433594,0.420215
109,479.003906,-956.542969,-708.984375,-778.808594,-656.738281,0.424121
110,-969.238281,-825.683594,-835.449219,117.187500,-526.367188,0.428028
111,-938.964844,-612.792969,-877.929688,-1000.000000,-852.539062,0.431934
112,-1000.000000,-561.035156,-756.347656,-929.687500,-952.636719,0.435840
113,-264.648438,-730.468750,-601.074219,291.503906,-746.093750,0.439746
114,606.445312,-917.480469,-645.996094,-753.906250,-441.406250,0.443653
115,-799.316406,-831.054688,-774.414062,191.406250,-268.554688,0.447559
116,-984.375000,-634.277344,-848.144531,-1000.000000,-715.332031,0.451465
117,-1000.000000,-557.617188,-755.371094,-996.582031,-975.097656,0.455371
118,-485.839844,-690.429688,-561.035156,161.132812,-625.976562,0.459278
119,715.332031,-909.179688,-648.437500,-750.976562,-513.183594,0.463184
120,-521.484375,-866.699219,-838.867188,231.445312,-553.222656,0.459995
121,-1000.000000,-659.667969,-885.253906,-975.097656,-780.273438,0.463901
122,-1000.000000,-565.917969,-779.296875,-1000.000000,-986.328125,0.467807
123,-714.843750,-704.101562,-633.789062,-114.746094,-939.941406,0.471713
124,667.968750,-918.945312,-677.246094,-785.644531,-738.281250,0.475620
125,-259.277344,-876.464844,-784.179688,406.738281,-385.742188,0.479526
126,-1000.000000,-656.738281,-831.542969,-911.132812,-525.878906,0.483432
127,-955.566406,-556.152344,-797.851562,-1000.000000,-968.261719,0.487338
128,-919.433594,-663.085938,-584.960938,-138.671875,-713.867188,0.491245
129,576.171875,-888.183594,-585.449219,-815.429688,-492.187500,0.495151
130,64.453125,-918.457031,-787.109375,548.828125,-451.660156,0.499057
131,-1000.000000,-707.519531,-877.441406,-791.015625,-639.160156,0.502963
132,-913.085938,-568.847656,-848.144531,-1000.000000,-979.980469,0.520314
133,-1000.000000,-662.109375,-688.964844,-205.566406,-981.445312,0.524220
134,345.703125,-890.136719,-666.992188,-878.417969,-863.281250,0.528126
135,236.328125,-938.964844,-794.433594,755.859375,-570.312500,0.532032
136,-1000.000000,-735.351562,-873.046875,-581.542969,-627.441406,0.535939
137,-904.296875,-562.500000,-823.242188,-1000.000000,-874.023438,0.539845
138,-1000.000000,-606.933594,-610.839844,-220.703125,-620.605469,0.543751
139,182.617188,-831.542969,-571.289062,-935.546875,-427.246094,0.547657
140,336.425781,-948.730469,-786.621094,918.945312,-501.953125,0.551564
141,-1000.000000,-766.601562,-888.671875,-340.820312,-604.003906,0.555470
142,-911.621094,-589.355469,-868.652344,-1000.000000,-929.199219,0.559376
143,-1000.000000,-627.441406,-729.003906,-364.746094,-944.824219,0.563282
144,59.570312,-849.609375,-668.457031,949.707031,-787.597656,0.560349
145,395.996094,-963.378906,-767.089844,-932.128906,-489.746094,0.564256
146,-1000.000000,-783.691406,-867.675781,-101.074219,-494.140625,0.568162
147,-920.410156,-592.773438,-857.421875,-1000.000000,-857.421875,0.572068
148,-1000.000000,-604.492188,-710.937500,-524.902344,-967.773438,0.575974
149,-46.875000,-817.382812,-623.046875,795.410156,-781.250000,0.579881
150,479.492188,-950.683594,-713.378906,-836.914062,-408.691406,0.583787
151,-975.585938,-789.550781,-842.285156,108.398438,-412.597656,0.587693
152,-940.429688,-603.515625,-902.832031,-1000.000000,-891.601562,0.591599
153,-1000.000000,-583.007812,-745.117188,-652.832031,-902.343750,0.595506
154,-103.027344,-766.601562,-571.289062,688.476562,-578.613281,0.599412
155,710.937500,-985.839844,-720.703125,-805.175781,-544.921875,0.603318
156,-792.968750,-873.535156,-875.000000,143.066406,-555.664062,0.600205
157,-988.769531,-629.882812,-895.019531,-1000.000000,-824.218750,0.604111
158,-1000.000000,-574.707031,-771.972656,-883.789062,-966.308594,0.608017
159,-154.296875,-761.230469,-660.644531,360.351562,-898.925781,0.611924
160,924.316406,-980.957031,-736.816406,-762.695312,-664.550781,0.615830
161,-548.339844,-871.582031,-822.753906,208.007812,-337.402344,0.619736
162,-1000.000000,-620.605469,-848.144531,-1000.000000,-599.609375,0.623642
163,-1000.000000,-550.781250,-748.535156,-972.656250,-877.929688,0.627549
164,-218.750000,-717.773438,-574.218750,220.703125,-580.078125,0.631455
165,-869.628906,-959.472656,-680.175781,-752.929688,-521.484375,0.635361
166,-185.546875,-928.710938,-871.582031,272.460938,-565.917969,0.639267
167,-1000.000000,-687.011719,-901.855469,-969.726562,-757.324219,0.643174
168,-1000.000000,-558.593750,-813.964844,-1000.000000,-979.003906,0.660045
169,-266.601562,-708.496094,-677.246094,-10.742188,-881.835938,0.663951
170,-815.429688,-954.101562,-740.722656,-780.761719,-782.226562,0.667857
171,60.546875,-945.800781,-867.675781,429.687500,-599.121094,0.671764
172,-1000.000000,-718.750000,-884.765625,-886.230469,-741.699219,0.675670
173,-1000.000000,-568.359375,-787.109375,-1000.000000,-926.757812,0.679576
174,-362.792969,-666.503906,-586.425781,-98.632812,-598.144531,0.683482
175,-843.261719,-907.714844,-634.277344,-823.730469,-430.664062,0.687389
176,190.917969,-957.519531,-867.675781,626.464844,-548.339844,0.691295
177,-1000.000000,-726.074219,-918.457031,-715.332031,-752.929688,0.695201
178,-1000.000000,-562.500000,-845.703125,-1000.000000,-972.656250,0.699107
179,-562.500000,-672.363281,-678.222656,-158.691406,-972.167969,0.703014
180,-959.472656,-912.597656,-682.128906,-882.324219,-943.359375,0.699537
181,248.535156,-976.074219,-836.425781,808.593750,-661.132812,0.703444
182,-1000.000000,-755.859375,-886.718750,-503.417969,-657.226562,0.707350
183,-1000.000000,-563.476562,-850.585938,-1000.000000,-966.796875,0.711256
184,-832.519531,-639.648438,-689.941406,-220.214844,-921.386719,0.715162
185,744.628906,-878.417969,-633.300781,-951.171875,-701.660156,0.719069
186,310.546875,-968.750000,-762.207031,965.332031,-352.539062,0.722975
187,-1000.000000,-741.699219,-854.980469,-260.742188,-399.414062,0.726881
188,-944.824219,-544.433594,-888.183594,-1000.000000,-934.082031,0.730787
189,-1000.000000,-572.265625,-704.589844,-281.738281,-815.917969,0.734694
190,453.125000,-803.222656,-558.593750,994.140625,-438.964844,0.738600
191,433.593750,-997.070312,-718.261719,-939.941406,-451.660156,0.742506
192,-1000.000000,-832.519531,-825.195312,-72.265625,-567.382812,0.739752
193,-924.316406,-602.539062,-819.335938,-1000.000000,-878.417969,0.743659
194,-1000.000000,-589.355469,-708.007812,-479.492188,-941.894531,0.747565
195,209.472656,-803.222656,-675.781250,834.472656,-891.601562,0.751471
196,569.824219,-978.515625,-827.148438,-846.191406,-758.789062,0.755377
197,-1000.000000,-785.156250,-868.164062,114.257812,-486.328125,0.759284
198,-928.222656,-561.035156,-835.937500,-1000.000000,-726.562500,0.763190
199,-1000.000000,-566.406250,-697.265625,-670.410156,-900.878906,0.767096
200,-78.613281,-767.578125,-546.875000,677.246094,-598.632812,0.771002
201,645.996094,-986.816406,-688.964844,-803.710938,-518.554688,0.774909
202,-883.789062,-855.468750,-843.750000,125.488281,-576.660156,0.778815
203,-972.167969,-601.074219,-864.746094,-1000.000000,-853.515625,0.782721
204,-1000.000000,-552.734375,-745.605469,-906.250000,-961.914062,0.800046
205,-116.699219,-732.421875,-607.910156,327.148438,-834.960938,0.803952
206,783.203125,-957.031250,-697.265625,-759.765625,-637.695312,0.807858
207,-749.023438,-851.562500,-856.933594,163.085938,-550.781250,0.811765
208,-997.558594,-607.421875,-897.949219,-1000.000000,-853.515625,0.815671
209,-1000.000000,-535.156250,-768.554688,-1000.000000,-989.746094,0.819577
210,-268.554688,-682.128906,-555.664062,125.976562,-633.789062,0.823483
211,916.015625,-938.964844,-640.136719,-749.023438,-537.109375,0.827390
212,-513.183594,-895.996094,-843.750000,220.703125,-598.632812,0.831296
213,-1000.000000,-632.812500,-879.394531,-983.398438,-761.230469,0.835202
214,-1000.000000,-526.855469,-795.410156,-1000.000000,-984.863281,0.839108
215,-482.910156,-670.410156,-645.507812,-98.144531,-911.132812,0.843015
216,986.816406,-930.175781,-677.246094,-779.785156,-760.742188,0.839938
217,-219.726562,-921.875000,-804.687500,346.191406,-537.597656,0.843844
218,-1000.000000,-685.058594,-846.679688,-937.988281,-732.421875,0.847750
219,-1000.000000,-560.058594,-792.968750,-1000.000000,-1000.000000,0.851656
220,-682.128906,-654.785156,-654.785156,-171.386719,-849.609375,0.855563
221,913.574219,-868.652344,-674.316406,-821.289062,-578.613281,0.859469
222,35.644531,-875.488281,-812.500000,564.941406,-319.335938,0.863375
223,-1000.000000,-650.878906,-841.308594,-786.621094,-447.265625,0.867281
224,-958.984375,-551.269531,-803.222656,-1000.000000,-955.566406,0.871188
225,-907.714844,-648.925781,-580.566406,-192.871094,-767.578125,0.875094
226,664.550781,-872.558594,-530.761719,-870.605469,-428.222656,0.879000
227,276.367188,-960.449219,-777.832031,736.328125,-460.449219,0.882906
228,-1000.000000,-728.027344,-877.441406,-597.656250,-618.652344,0.879442
229,-927.246094,-550.292969,-852.539062,-1000.000000,-953.125000,0.883349
230,-1000.000000,-626.953125,-697.753906,-261.230469,-910.644531,0.887255
231,363.281250,-867.187500,-656.738281,-955.566406,-798.828125,0.891161
232,348.632812,-978.515625,-791.015625,932.617188,-591.308594,0.895067
233,-1000.000000,-755.371094,-829.101562,-329.589844,-456.542969,0.898974
234,-910.644531,-550.292969,-811.523438,-1000.000000,-804.687500,0.902880
235,-1000.000000,-583.984375,-656.738281,-320.312500,-780.273438,0.906786
236,133.789062,-801.269531,-557.128906,984.375000,-443.359375,0.910692
237,351.074219,-963.378906,-745.605469,-958.007812,-471.191406,0.914599
238,-1000.000000,-788.085938,-858.398438,-139.648438,-625.976562,0.918505
239,-908.691406,-585.449219,-848.632812,-1000.000000,-907.226562,0.922411
240,-1000.000000,-594.726562,-713.378906,-511.230469,-943.359375,0.939621
241,-14.648438,-810.546875,-643.066406,815.429688,-925.781250,0.943527
242,417.968750,-981.933594,-771.972656,-854.003906,-725.097656,0.947434
243,-1000.000000,-809.570312,-869.140625,47.851562,-579.101562,0.951340
244,-925.781250,-582.031250,-883.300781,-1000.000000,-911.132812,0.955246
245,-1000.000000,-559.082031,-717.773438,-688.964844,-886.230469,0.959152
246,-76.660156,-746.093750,-543.457031,647.460938,-456.542969,0.963059
247,587.890625,-968.750000,-677.246094,-798.828125,-410.156250,0.966965
248,-918.457031,-854.980469,-835.449219,123.535156,-608.886719,0.970871
249,-961.425781,-612.304688,-862.304688,-1000.000000,-884.277344,0.974777
250,-1000.000000,-552.734375,-758.300781,-901.367188,-962.402344,0.978684
251,-118.652344,-729.003906,-642.089844,345.214844,-878.417969,0.982590
252,758.300781,-942.382812,-737.792969,-757.812500,-735.839844,0.979577
253,-767.578125,-838.867188,-854.003906,160.156250,-580.566406,0.983483
254,-992.187500,-624.023438,-859.375000,-1000.000000,-825.195312,0.987389
255,-1000.000000,-560.058594,-733.886719,-1000.000000,-984.375000,0.991296
256,-305.175781,-725.097656,-594.726562,87.402344,-880.859375,0.995202
257,913.085938,-937.988281,-655.273438,-752.929688,-589.843750,0.999108
258,-488.769531,-848.632812,-777.832031,251.464844,-278.808594,1.003014
259,-1000.000000,-616.699219,-837.402344,-975.585938,-606.445312,1.006921
260,-1000.000000,-548.339844,-814.453125,-1000.000000,-1000.000000,1.010827
261,-529.296875,-674.804688,-601.074219,-79.101562,-673.339844,1.014733
262,970.703125,-900.390625,-608.886719,-773.925781,-366.210938,1.018639
263,-180.664062,-907.226562,-834.960938,337.890625,-490.234375,1.022546
264,-1000.000000,-682.128906,-883.789062,-937.988281,-713.867188,1.019639
265,-1000.000000,-565.429688,-795.898438,-1000.000000,-970.703125,1.023546
266,-737.792969,-680.664062,-632.812500,-175.781250,-887.695312,1.027452
267,862.304688,-921.875000,-668.457031,-814.453125,-756.835938,1.031358
268,100.585938,-937.988281,-825.195312,514.160156,-548.339844,1.035264
269,-1000.000000,-672.363281,-847.656250,-825.195312,-523.925781,1.039171
270,-952.148438,-524.414062,-801.269531,-1000.000000,-859.375000,1.043077
271,-950.195312,-622.558594,-622.558594,-199.707031,-772.949219,1.046983
272,586.425781,-861.328125,-569.335938,-858.886719,-476.074219,1.050889
273,269.042969,-959.960938,-787.109375,690.917969,-493.652344,1.054796
274,-1000.000000,-744.628906,-875.976562,-653.808594,-695.312500,1.058702
275,-925.781250,-573.242188,-846.191406,-1000.000000,-970.703125,1.062608
276,-1000.000000,-631.347656,-707.519531,-257.812500,-948.242188,1.080795
277,353.027344,-856.933594,-671.386719,-937.988281,-806.640625,1.084701
278,348.632812,-945.312500,-808.593750,885.742188,-557.128906,1.088607
279,-1000.000000,-739.746094,-873.046875,-408.203125,-666.992188,1.092514
280,-911.621094,-577.636719,-840.820312,-1000.000000,-984.863281,1.096420
281,-1000.000000,-617.187500,-658.203125,-346.679688,-889.648438,1.100326
282,141.601562,-834.960938,-575.195312,974.121094,-663.085938,1.104232
283,365.722656,-957.519531,-727.539062,-966.796875,-428.222656,1.108139
284,-1000.000000,-761.718750,-857.421875,-171.875000,-515.136719,1.112045
285,-908.691406,-572.753906,-896.484375,-1000.000000,-946.777344,1.115951
286,-1000.000000,-580.566406,-739.257812,-501.464844,-908.691406,1.119857
287,-17.089844,-780.761719,-588.378906,833.984375,-604.980469,1.123764
288,452.636719,-979.003906,-730.468750,-860.351562,-534.179688,1.119554
289,-1000.000000,-834.472656,-846.679688,25.878906,-618.652344,1.123460
290,-931.152344,-611.816406,-842.773438,-1000.000000,-898.437500,1.127367
291,-1000.000000,-591.796875,-726.074219,-710.937500,-953.613281,1.131273
292,-87.402344,-787.109375,-632.324219,606.933594,-858.886719,1.135179
293,649.414062,-957.519531,-726.562500,-791.992188,-554.199219,1.139085
294,-868.652344,-805.664062,-816.894531,144.042969,-340.820312,1.142992
295,-975.097656,-599.609375,-858.886719,-1000.000000,-771.972656,1.146898
296,-1000.000000,-563.964844,-757.812500,-906.738281,-968.261719,1.150804
297,-139.648438,-718.261719,-572.753906,352.050781,-567.382812,1.154710
298,871.582031,-952.148438,-681.640625,-756.347656,-438.964844,1.158617
299,-629.882812,-876.953125,-875.488281,161.132812,-528.808594,1.162523
300,-1000.000000,-626.464844,-881.835938,-1000.000000,-761.718750,1.159889
301,-1000.000000,-570.800781,-776.367188,-1000.000000,-991.210938,1.163795
302,-226.074219,-739.746094,-634.277344,123.535156,-879.882812,1.167701
303,-937.500000,-970.703125,-706.542969,-750.000000,-689.453125,1.171607
304,-325.195312,-909.179688,-857.910156,232.421875,-484.375000,1.175514
305,-1000.000000,-631.347656,-850.585938,-982.421875,-537.597656,1.179420
306,-1000.000000,-536.621094,-787.109375,-1000.000000,-860.351562,1.183326
307,-412.109375,-681.152344,-608.886719,-73.242188,-636.718750,1.187232
308,-911.621094,-916.015625,-613.281250,-775.390625,-384.765625,1.191139
309,-82.031250,-933.593750,-818.847656,377.441406,-451.660156,1.195045
310,-1000.000000,-684.570312,-861.328125,-919.433594,-629.394531,1.198951
311,-1000.000000,-546.386719,-800.292969,-1000.000000,-967.285156,1.202857
312,-520.996094,-670.898438,-667.968750,-167.480469,-931.640625,1.219820
313,-923.339844,-916.992188,-715.332031,-815.917969,-818.847656,1.223726
314,152.832031,-945.312500,-858.398438,524.414062,-619.628906,1.227633
315,-1000.000000,-711.425781,-877.929688,-817.382812,-700.195312,1.231539
316,-1000.000000,-579.589844,-821.777344,-1000.000000,-1000.000000,1.235445
317,-707.519531,-667.480469,-596.679688,-192.382812,-727.050781,1.239351
318,906.250000,-887.695312,-582.031250,-863.769531,-445.312500,1.243258
319,270.507812,-967.285156,-827.636719,716.308594,-512.695312,1.247164
320,-1000.000000,-728.515625,-908.203125,-624.023438,-618.164062,1.251070
321,-997.558594,-542.968750,-878.906250,-1000.000000,-970.214844,1.254976
322,-849.121094,-625.488281,-683.593750,-231.445312,-842.773438,1.258883
323,723.144531,-862.304688,-623.046875,-938.476562,-656.250000,1.262789
324,317.871094,-992.187500,-796.386719,916.992188,-605.468750,1.259910
325,-1000.000000,-787.597656,-864.257812,-350.585938,-602.050781,1.263817
326,-941.894531,-558.105469,-834.472656,-1000.000000,-865.722656,1.267723
327,-1000.000000,-596.679688,-698.730469,-323.242188,-880.859375,1.271629
328,432.128906,-840.820312,-658.203125,970.703125,-770.996094,1.275535
329,434.082031,-989.257812,-765.136719,-937.011719,-504.394531,1.279442
330,-1000.000000,-785.644531,-807.617188,-78.613281,-382.324219,1.283348
331,-925.292969,-574.707031,-836.914062,-1000.000000,-842.773438,1.287254
332,-1000.000000,-584.960938,-726.562500,-485.351562,-952.636719,1.291160
333,219.726562,-781.738281,-584.472656,853.515625,-528.808594,1.295067
334,618.652344,-981.445312,-744.628906,-859.863281,-478.027344,1.298973
335,-966.308594,-830.078125,-883.789062,51.269531,-642.089844,1.302879
336,-950.195312,-598.144531,-865.722656,-1000.000000,-887.207031,1.300015
337,-1000.000000,-587.890625,-733.886719,-703.125000,-959.960938,1.303921
338,22.949219,-792.968750,-636.230469,628.417969,-859.863281,1.307827
339,840.332031,-1000.000000,-775.878906,-795.410156,-727.539062,1.311733
340,-731.933594,-858.398438,-898.437500,130.859375,-527.832031,1.315640
341,-1000.000000,-586.425781,-865.234375,-1000.000000,-690.429688,1.319546
342,-1000.000000,-544.433594,-722.656250,-898.437500,-853.515625,1.323452
343,-146.484375,-749.511719,-548.339844,358.886719,-544.433594,1.327358
344,-924.316406,-981.933594,-646.484375,-756.835938,-381.835938,1.331265
345,-353.027344,-897.460938,-866.699219,165.039062,-522.460938,1.335171
346,-1000.000000,-625.976562,-906.250000,-1000.000000,-801.757812,1.339077
347,-1000.000000,-527.832031,-827.148438,-1000.000000,-991.699219,1.342983
348,-227.050781,-717.285156,-699.707031,112.304688,-899.414062,1.364854
349,-836.425781,-972.167969,-747.070312,-749.511719,-756.835938,1.368761
350,-108.886719,-922.851562,-841.308594,233.886719,-577.148438,1.372667
351,-1000.000000,-675.292969,-852.050781,-982.910156,-761.718750,1.376573
352,-1000.000000,-556.152344,-776.855469,-1000.000000,-1000.000000,1.380479
353,-235.351562,-682.128906,-645.019531,-68.359375,-879.394531,1.384386
354,-806.152344,-930.175781,-695.800781,-774.414062,-664.062500,1.388292
355,51.269531,-915.039062,-854.003906,360.839844,-489.257812,1.392198
356,-1000.000000,-649.414062,-859.375000,-927.246094,-592.773438,1.396104
357,-1000.000000,-551.757812,-787.109375,-1000.000000,-964.355469,1.400011
358,-335.937500,-678.222656,-603.515625,-162.597656,-797.363281,1.403917
359,-831.542969,-906.738281,-613.281250,-820.800781,-519.042969,1.407823
360,188.964844,-953.125000,-848.632812,566.894531,-545.898438,1.399893
361,-1000.000000,-699.218750,-891.113281,-781.738281,-686.035156,1.403799
362,-1000.000000,-534.179688,-823.242188,-1000.000000,-971.679688,1.407705
363,-481.933594,-659.667969,-645.019531,-180.175781,-902.832031,1.411612
364,-904.296875,-906.250000,-644.042969,-883.789062,-800.781250,1.415518
365,230.468750,-970.703125,-781.250000,805.175781,-500.976562,1.419424
366,-1000.000000,-720.703125,-809.570312,-519.531250,-412.109375,1.423330
367,-1000.000000,-529.296875,-833.007812,-1000.000000,-901.855469,1.427237
368,-663.085938,-618.652344,-677.734375,-204.101562,-875.000000,1.431143
369,956.054688,-851.562500,-582.519531,-936.035156,-504.394531,1.435049
370,321.289062,-997.070312,-773.437500,944.335938,-507.812500,1.438955
371,-1000.000000,-793.457031,-838.378906,-310.058594,-524.414062,1.442862
372,-989.257812,-555.664062,-800.781250,-1000.000000,-787.109375,1.439864
373,-887.207031,-595.214844,-695.312500,-293.457031,-950.683594,1.443770
374,678.222656,-832.031250,-672.363281,989.257812,-868.652344,1.447676
375,511.718750,-998.535156,-827.636719,-943.847656,-701.171875,1.451582
376,-1000.000000,-805.175781,-869.140625,-98.632812,-588.867188,1.455489
377,-954.101562,-562.500000,-797.363281,-1000.000000,-791.992188,1.459395
378,-1000.000000,-579.101562,-639.160156,-442.871094,-808.105469,1.463301
379,344.726562,-800.781250,-544.921875,883.300781,-541.992188,1.467207
380,693.359375,-996.093750,-737.304688,-873.046875,-505.371094,1.471114
381,-923.339844,-830.078125,-899.414062,39.062500,-613.769531,1.475020
382,-964.843750,-568.847656,-884.277344,-1000.000000,-840.332031,1.478926
383,-1000.000000,-562.988281,-744.140625,-671.386719,-978.027344,1.482832
384,92.773438,-790.527344,-630.859375,668.457031,-878.906250,1.499408
385,882.812500,-1000.000000,-757.324219,-806.152344,-743.652344,1.503314
386,-712.402344,-854.003906,-841.308594,115.234375,-477.539062,1.507221
387,-1000.000000,-576.171875,-833.496094,-1000.000000,-672.851562,1.511127
388,-1000.000000,-535.644531,-768.554688,-864.257812,-1000.000000,1.515033
389,-155.761719,-740.234375,-636.230469,409.179688,-803.710938,1.518939
390,-971.679688,-980.468750,-711.425781,-763.671875,-561.035156,1.522846
391,-420.898438,-894.531250,-848.632812,165.527344,-522.460938,1.526752
392,-1000.000000,-626.953125,-846.679688,-1000.000000,-779.296875,1.530658
393,-1000.000000,-545.410156,-772.460938,-999.023438,-1000.000000,1.534564
394,-214.843750,-697.265625,-600.097656,157.226562,-696.777344,1.538471
395,-867.187500,-942.382812,-660.644531,-749.511719,-459.472656,1.542377
396,-207.031250,-904.785156,-863.769531,233.398438,-546.875000,1.539875
397,-1000.000000,-634.765625,-863.769531,-980.468750,-727.539062,1.543782
398,-1000.000000,-540.527344,-771.972656,-1000.000000,-986.816406,1.547688
399,-281.738281,-699.218750,-639.160156,-60.058594,-910.644531,1.551594
400,-836.425781,-949.218750,-698.242188,-776.367188,-787.109375,1.555500
401,-34.179688,-916.503906,-819.335938,391.113281,-455.078125,1.559407
402,-1000.000000,-634.765625,-811.523438,-908.691406,-453.125000,1.563313
403,-1000.000000,-514.648438,-753.417969,-1000.000000,-880.371094,1.567219
404,-477.539062,-650.878906,-576.171875,-146.972656,-735.839844,1.571125
405,-897.949219,-900.390625,-579.101562,-817.871094,-399.902344,1.575032
406,166.015625,-949.218750,-810.058594,557.128906,-414.550781,1.578938
407,-1000.000000,-697.753906,-881.835938,-786.132812,-652.343750,1.582844
408,-1000.000000,-533.203125,-835.449219,-1000.000000,-975.585938,1.599877
409,-650.390625,-643.554688,-680.664062,-187.988281,-912.597656,1.603783
410,970.214844,-891.601562,-668.945312,-873.046875,-795.410156,1.607689
411,265.625000,-975.097656,-819.335938,754.882812,-604.003906,1.611596
412,-1000.000000,-743.164062,-854.492188,-577.148438,-634.765625,1.615502
413,-1000.000000,-532.226562,-794.921875,-1000.000000,-874.023438,1.619408
414,-806.640625,-589.843750,-627.441406,-225.585938,-775.390625,1.623314
415,780.273438,-835.937500,-578.613281,-949.707031,-502.929688,1.627221
416,300.781250,-954.101562,-754.394531,953.613281,-397.949219,1.631127
417,-1000.000000,-732.421875,-826.660156,-282.226562,-522.460938,1.635033
418,-960.937500,-547.851562,-821.777344,-1000.000000,-878.417969,1.638939
419,-970.703125,-604.492188,-702.148438,-331.542969,-965.820312,1.642846
420,550.781250,-839.843750,-649.902344,972.656250,-858.886719,1.640045
421,440.917969,-994.628906,-804.199219,-938.476562,-666.503906,1.643952
422,-1000.000000,-792.480469,-879.882812,-93.261719,-582.031250,1.647858
423,-932.128906,-557.617188,-860.351562,-1000.000000,-879.882812,1.651764
424,-1000.000000,-579.101562,-719.238281,-492.675781,-979.003906,1.655670
425,282.226562,-811.035156,-615.234375,833.496094,-809.082031,1.659577
426,620.605469,-987.304688,-714.355469,-843.750000,-452.636719,1.663483
427,-973.632812,-801.757812,-828.613281,105.468750,-387.695312,1.667389
428,-946.289062,-567.871094,-861.328125,-1000.000000,-838.867188,1.671295
429,-1000.000000,-566.406250,-762.207031,-711.425781,-1000.000000,1.675202
430,42.480469,-764.648438,-578.613281,626.953125,-681.152344,1.679108
431,791.015625,-979.492188,-641.601562,-794.921875,-331.542969,1.683014
432,-792.968750,-863.769531,-834.960938,137.207031,-504.394531,1.680370
433,-989.257812,-600.097656,-865.234375,-1000.000000,-861.328125,1.684276
434,-1000.000000,-545.410156,-771.484375,-895.996094,-981.933594,1.688183
435,-143.066406,-743.164062,-663.574219,359.375000,-920.898438,1.692089
436,973.632812,-983.398438,-747.070312,-755.859375,-766.601562,1.695995
437,-506.835938,-880.371094,-823.730469,196.777344,-450.195312,1.699901
438,-1000.000000,-605.957031,-795.410156,-1000.000000,-596.191406,1.703808
439,-1000.000000,-548.828125,-751.953125,-1000.000000,-1000.000000,1.707714
440,-218.750000,-710.449219,-599.121094,130.371094,-757.324219,1.711620
441,-864.746094,-937.500000,-632.812500,-750.976562,-381.835938,1.715526
442,-196.777344,-900.878906,-852.539062,254.882812,-472.167969,1.719433
443,-1000.000000,-638.183594,-883.789062,-973.144531,-755.859375,1.723339
444,-1000.000000,-542.968750,-790.527344,-1000.000000,-983.886719,1.740402
445,-258.300781,-704.101562,-651.855469,-65.917969,-933.105469,1.744308
446,-821.777344,-949.707031,-683.593750,-776.855469,-744.628906,1.748214
447,-3.417969,-925.781250,-826.660156,385.742188,-464.843750,1.752120
448,-1000.000000,-660.644531,-877.929688,-916.992188,-629.394531,1.756027
449,-1000.000000,-522.949219,-783.691406,-1000.000000,-881.835938,1.759933
450,-362.304688,-649.902344,-592.285156,-136.230469,-687.500000,1.763839
451,-841.308594,-902.832031,-599.121094,-817.382812,-411.132812,1.767745
452,177.734375,-950.683594,-812.988281,565.429688,-440.429688,1.771652
453,-1000.000000,-704.101562,-889.648438,-777.343750,-696.289062,1.775558
454,-1000.000000,-534.179688,-835.449219,-1000.000000,-979.003906,1.779464
455,-519.531250,-641.601562,-680.175781,-186.523438,-903.320312,1.783370
456,-924.316406,-893.066406,-670.898438,-875.488281,-766.113281,1.780239
457,237.792969,-976.074219,-822.753906,763.183594,-604.003906,1.784146
458,-1000.000000,-744.140625,-865.234375,-565.917969,-631.835938,1.788052
459,-1000.000000,-547.363281,-831.054688,-1000.000000,-952.148438,1.791958
460,-695.312500,-614.746094,-684.570312,-232.910156,-916.992188,1.795864
461,919.921875,-858.886719,-643.066406,-947.753906,-726.074219,1.799771
462,304.199219,-973.144531,-773.925781,939.941406,-492.675781,1.803677
463,-1000.000000,-742.675781,-813.476562,-304.199219,-422.363281,1.807583
464,-983.886719,-549.316406,-810.546875,-1000.000000,-845.214844,1.811489
465,-894.531250,-608.398438,-703.613281,-352.050781,-1000.000000,1.815396
466,670.898438,-826.171875,-589.355469,967.773438,-613.769531,1.819302
467,508.789062,-982.421875,-751.953125,-947.753906,-430.664062,1.823208
468,-1000.000000,-789.550781,-898.437500,-128.906250,-659.179688,1.820204
469,-957.031250,-555.664062,-871.582031,-1000.000000,-897.460938,1.824110
470,-1000.000000,-581.542969,-734.375000,-536.621094,-974.609375,1.828017
471,365.234375,-810.058594,-634.765625,798.828125,-861.816406,1.831923
472,711.914062,-1000.000000,-769.042969,-843.261719,-717.773438,1.835829
473,-905.761719,-820.312500,-836.425781,59.082031,-454.101562,1.839735
474,-972.656250,-552.246094,-813.476562,-1000.000000,-666.015625,1.843642
475,-1000.000000,-555.664062,-763.183594,-776.367188,-1000.000000,1.847548
476,108.886719,-758.300781,-609.375000,540.039062,-675.292969,1.851454
477,961.914062,-979.003906,-681.640625,-784.667969,-335.449219,1.855360
478,-611.816406,-865.234375,-875.488281,105.957031,-540.039062,1.859267
479,-1000.000000,-597.656250,-875.000000,-1000.000000,-822.753906,1.863173
480,-1000.000000,-548.339844,-768.554688,-935.058594,-991.210938,1.880200
481,-111.328125,-752.441406,-669.433594,286.132812,-892.089844,1.884106
482,-864.257812,-989.746094,-767.578125,-752.929688,-744.140625,1.888013
483,-261.718750,-888.671875,-885.253906,155.761719,-540.039062,1.891919
484,-1000.000000,-619.140625,-863.281250,-1000.000000,-710.937500,1.895825
485,-1000.000000,-531.738281,-742.187500,-1000.000000,-942.382812,1.899731
486,-228.027344,-697.753906,-577.148438,77.148438,-628.417969,1.903638
487,-817.871094,-949.707031,-650.878906,-751.464844,-412.597656,1.907544
488,-33.203125,-910.156250,-868.652344,224.609375,-550.781250,1.911450
489,-1000.000000,-637.695312,-891.601562,-984.863281,-780.273438,1.915356
490,-1000.000000,-535.644531,-792.480469,-1000.000000,-998.046875,1.919263
491,-237.304688,-709.960938,-641.113281,-101.562500,-898.437500,1.923169
492,-799.804688,-955.078125,-672.851562,-777.343750,-692.871094,1.920227
493,118.652344,-935.058594,-836.425781,353.027344,-548.828125,1.924134
494,-1000.000000,-676.269531,-871.093750,-935.058594,-688.964844,1.928040
495,-1000.000000,-532.714844,-802.246094,-1000.000000,-973.632812,1.931946
496,-263.183594,-677.246094,-652.343750,-159.179688,-895.507812,1.935852
497,-805.664062,-929.199219,-654.296875,-835.937500,-629.882812,1.939759
498,199.218750,-957.031250,-778.320312,654.296875,-373.046875,1.943665
499,-1000.000000,-722.656250,-821.777344,-704.101562,-553.710938,1.947571
500,-1000.000000,-555.175781,-799.316406,-1000.000000,-978.515625,1.951477
501,-349.121094,-669.433594,-644.531250,-121.093750,-926.757812,1.955384
502,-839.843750,-900.878906,-597.167969,-929.687500,-512.695312,1.959290
503,295.410156,-987.792969,-784.667969,979.003906,-406.738281,1.963196
504,-979.980469,-789.062500,-855.468750,-242.675781,-692.871094,1.960213
505,-1000.000000,-570.800781,-790.039062,-1000.000000,-958.984375,1.964120
506,-395.996094,-685.058594,-634.765625,-73.242188,-947.265625,1.968026
507,-888.671875,-916.015625,-630.859375,-972.656250,-791.503906,1.971932
508,609.375000,-1000.000000,-819.335938,-893.066406,-608.398438,1.975838
509,-800.781250,-820.800781,-826.171875,171.875000,-426.757812,1.979745
510,-1000.000000,-560.058594,-761.718750,-1000.000000,-601.074219,1.983651
511,-464.355469,-659.667969,-665.527344,-110.839844,-854.980469,1.987557
512,991.210938,-903.808594,-587.890625,-957.031250,-585.937500,1.991463
513,870.117188,-999.511719,-758.789062,-895.019531,-410.156250,1.995370
514,-549.316406,-862.792969,-888.183594,239.257812,-627.441406,1.999276
515,-1000.000000,-593.750000,-857.421875,-1000.000000,-833.496094,2.003182
516,-840.332031,-605.468750,-729.492188,-217.773438,-948.730469,2.020245
517,661.132812,-853.515625,-657.226562,-982.421875,-891.601562,2.024151
518,747.070312,-1000.000000,-795.898438,-887.695312,-707.519531,2.028057
519,-862.792969,-851.562500,-858.886719,246.582031,-575.683594,2.031963
520,-965.332031,-579.589844,-835.449219,-1000.000000,-790.039062,2.035870
521,-1000.000000,-541.015625,-705.566406,-403.320312,-860.839844,2.039776
522,81.542969,-750.976562,-543.945312,921.875000,-490.234375,2.043682
523,600.097656,-929.687500,-647.460938,-854.492188,-252.929688,2.047588
524,-962.402344,-803.222656,-831.054688,223.144531,-454.101562,2.051495
525,-945.312500,-568.847656,-823.730469,-1000.000000,-718.261719,2.055401
526,-1000.000000,-534.179688,-718.750000,-775.878906,-938.476562,2.059307
527,-83.007812,-745.117188,-613.769531,534.667969,-854.980469,2.063213
528,622.558594,-946.777344,-684.082031,-779.296875,-628.906250,2.060220
529,-905.761719,-826.660156,-820.800781,244.140625,-534.179688,2.064126
530,-964.843750,-590.820312,-848.632812,-1000.000000,-700.683594,2.068032
531,-1000.000000,-532.714844,-766.601562,-967.285156,-959.472656,2.071939
532,-184.570312,-714.355469,-617.675781,240.234375,-846.191406,2.075845
533,800.292969,-928.222656,-626.464844,-758.789062,-504.394531,2.079751
534,-703.613281,-848.144531,-741.699219,365.234375,-298.339844,2.083657
535,-1000.000000,-617.675781,-799.316406,-937.500000,-576.171875,2.087564
536,-1000.000000,-541.015625,-783.203125,-1000.000000,-1000.000000,2.091470
537,-423.339844,-687.011719,-599.121094,85.937500,-787.109375,2.095376
538,967.285156,-897.949219,-551.269531,-786.132812,-347.167969,2.099282
539,-318.847656,-898.437500,-747.558594,540.527344,-394.531250,2.103189
540,-1000.000000,-685.546875,-841.796875,-798.828125,-695.312500,2.100196
541,-1000.000000,-565.429688,-806.640625,-1000.000000,-984.863281,2.104102
542,-428.222656,-703.125000,-651.367188,-5.371094,-878.417969,2.108009
543,-879.882812,-928.710938,-643.066406,-871.582031,-667.480469,2.111915
544,64.941406,-964.355469,-790.527344,847.656250,-551.269531,2.115821
545,-1000.000000,-732.421875,-798.339844,-436.035156,-442.871094,2.119727
546,-1000.000000,-558.593750,-773.925781,-1000.000000,-701.171875,2.123634
547,-491.210938,-686.035156,-671.875000,-89.355469,-843.750000,2.127540
548,-901.367188,-905.761719,-580.078125,-915.039062,-402.832031,2.131446
549,230.957031,-966.796875,-729.980469,960.937500,-291.503906,2.135352
550,-1000.000000,-765.136719,-864.746094,-253.417969,-606.933594,2.139259
551,-958.984375,-574.707031,-860.839844,-1000.000000,-881.835938,2.143165
552,-984.863281,-636.718750,-697.753906,-187.988281,-804.687500,2.160187
553,491.699219,-864.257812,-622.070312,-932.617188,-631.347656,2.164093
554,279.785156,-946.289062,-750.976562,961.425781,-553.710938,2.167999
555,-1000.000000,-732.910156,-838.378906,-251.464844,-624.023438,2.171905
556,-943.847656,-546.386719,-852.539062,-1000.000000,-922.851562,2.175812
557,-951.171875,-575.683594,-718.261719,-467.773438,-964.843750,2.179718
558,-979.492188,-728.515625,-503.417969,925.781250,-456.054688,2.183624
559,-974.121094,-844.726562,-561.523438,997.070312,-245.117188,2.187530
560,-974.121094,-724.609375,-774.414062,-326.660156,-734.375000,2.191437
561,-973.632812,-543.945312,-812.011719,-1000.000000,-972.167969,2.195343
562,-973.632812,-555.664062,-729.980469,-865.722656,-975.585938,2.199249
563,-974.121094,-722.656250,-597.656250,442.871094,-911.132812,2.203155
564,-974.121094,-867.675781,-621.093750,-878.906250,-690.917969,2.200204
565,-974.121094,-742.675781,-757.324219,-268.554688,-740.722656,2.204110
566,-974.121094,-560.058594,-807.617188,-1000.000000,-960.449219,2.208017
567,-973.632812,-548.339844,-721.191406,-994.140625,-991.699219,2.211923
568,-974.121094,-703.125000,-574.218750,109.375000,-842.285156,2.215829
569,-974.121094,-872.070312,-567.871094,-769.042969,-548.339844,2.219735
570,-974.121094,-773.437500,-684.082031,19.531250,-494.628906,2.223642
571,-974.121094,-589.355469,-760.742188,-1000.000000,-777.832031,2.227548
572,-973.632812,-583.984375,-761.718750,-1000.000000,-1000.000000,2.231454
573,-974.121094,-712.890625,-589.843750,-46.875000,-747.558594,2.235360
574,-974.121094,-863.281250,-515.625000,-763.671875,-280.761719,2.239267
575,-973.632812,-822.753906,-732.421875,144.531250,-514.648438,2.243173
576,-974.121094,-631.347656,-846.191406,-1000.000000,-862.304688,2.240222
577,-974.121094,-574.707031,-812.988281,-1000.000000,-991.699219,2.244129
578,-973.632812,-710.449219,-673.828125,-146.484375,-882.324219,2.248035
579,-973.632812,-894.531250,-606.445312,-777.343750,-538.574219,2.251941
580,-974.121094,-869.628906,-732.910156,250.000000,-480.957031,2.255847
581,-973.632812,-662.109375,-795.410156,-985.351562,-707.519531,2.259754
582,-973.632812,-571.289062,-757.324219,-1000.000000,-915.527344,2.263660
583,-974.121094,-687.500000,-632.812500,-186.523438,-793.457031,2.267566
584,-974.121094,-856.933594,-542.968750,-794.921875,-291.503906,2.271472
585,-974.121094,-875.000000,-713.867188,383.789062,-393.066406,2.275379
586,-974.121094,-698.242188,-860.839844,-923.339844,-847.167969,2.279285
587,-966.796875,-593.261719,-848.632812,-1000.000000,-984.863281,2.283191
588,-996.582031,-696.289062,-713.867188,-214.355469,-937.988281,2.299825
589,-869.140625,-880.859375,-623.046875,-849.609375,-695.312500,2.303731
590,-834.960938,-920.898438,-731.933594,649.902344,-545.410156,2.307637
591,-987.792969,-736.328125,-834.472656,-704.589844,-744.628906,2.311543
592,-963.867188,-601.074219,-843.750000,-1000.000000,-989.746094,2.315450
593,-989.257812,-679.687500,-709.472656,-213.867188,-901.367188,2.319356
594,-933.593750,-838.867188,-539.062500,-916.992188,-343.750000,2.323262
595,-787.109375,-910.156250,-650.390625,871.093750,-231.933594,2.327168
596,-924.316406,-771.484375,-846.679688,-417.968750,-732.910156,2.331075
597,-971.679688,-602.050781,-854.492188,-1000.000000,-956.542969,2.334981
598,-1000.000000,-653.808594,-743.164062,-321.289062,-932.128906,2.338887
599,-696.777344,-848.144531,-652.832031,985.351562,-746.582031,2.342793
600,-345.703125,-940.429688,-723.632812,-968.750000,-580.078125,2.340394
601,-803.710938,-788.085938,-831.542969,-166.992188,-754.882812,2.344300
602,-994.628906,-612.792969,-859.375000,-1000.000000,-960.449219,2.348207
603,-1000.000000,-645.996094,-781.738281,-467.285156,-990.722656,2.352113
604,-715.820312,-824.218750,-640.625000,855.468750,-770.507812,2.356019
605,-397.460938,-922.363281,-639.160156,-857.910156,-403.320312,2.359925
606,-812.988281,-775.878906,-734.375000,62.500000,-453.125000,2.363832
607,-1000.000000,-598.144531,-799.316406,-1000.000000,-789.062500,2.367738
608,-966.796875,-622.558594,-805.175781,-718.261719,-1000.000000,2.371644
609,-888.183594,-764.648438,-620.117188,616.210938,-645.996094,2.375550
610,-524.902344,-878.417969,-583.007812,-797.363281,-201.171875,2.379457
611,-676.269531,-804.199219,-797.851562,101.074219,-633.789062,2.383363
612,-988.769531,-616.210938,-844.726562,-1000.000000,-940.917969,2.380024
613,-1000.000000,-593.261719,-772.949219,-912.109375,-968.750000,2.383931
614,-773.437500,-765.136719,-657.226562,330.078125,-854.003906,2.387837
615,-215.820312,-918.945312,-656.250000,-755.859375,-627.929688,2.391743
616,-556.152344,-823.242188,-789.550781,150.390625,-653.808594,2.395649
617,-1000.000000,-611.816406,-824.218750,-1000.000000,-795.410156,2.399556
618,-968.750000,-566.894531,-782.714844,-1000.000000,-938.476562,2.403462
619,-909.179688,-710.449219,-628.906250,118.164062,-728.027344,2.407368
620,-456.054688,-873.046875,-562.500000,-747.558594,-271.972656,2.411274
621,-547.363281,-844.726562,-750.488281,202.636719,-480.957031,2.415181
622,-986.328125,-666.015625,-859.375000,-988.769531,-886.718750,2.419087
623,-993.164062,-598.632812,-836.425781,-1000.000000,-992.675781,2.422993
624,-876.464844,-723.144531,-696.777344,-103.027344,-895.507812,2.440449
625,-249.023438,-894.042969,-637.207031,-773.925781,-682.617188,2.444356
626,-394.531250,-864.746094,-770.019531,311.035156,-665.039062,2.448262
627,-997.070312,-661.132812,-829.101562,-955.566406,-822.265625,2.452168
628,-972.656250,-571.777344,-802.246094,-1000.000000,-984.863281,2.456074
629,-927.734375,-689.453125,-670.410156,-172.363281,-843.750000,2.459981
630,-499.511719,-853.027344,-543.457031,-803.710938,-312.988281,2.463887
631,-428.710938,-872.558594,-697.265625,459.960938,-378.906250,2.467793
632,-924.316406,-705.078125,-856.445312,-869.140625,-839.843750,2.471699
633,-993.652344,-586.425781,-839.355469,-1000.000000,-985.839844,2.475606
634,-923.339844,-682.617188,-711.914062,-215.332031,-944.824219,2.479512
635,-317.382812,-872.558594,-636.718750,-857.421875,-724.609375,2.483418
636,-188.476562,-907.226562,-735.839844,670.898438,-595.703125,2.479851
637,-869.628906,-726.562500,-839.355469,-679.687500,-796.386719,2.483758
638,-996.582031,-592.285156,-857.910156,-1000.000000,-981.933594,2.487664
639,-945.312500,-672.363281,-750.000000,-255.859375,-970.703125,2.491570
640,-385.742188,-848.144531,-633.789062,-937.988281,-727.050781,2.495476
641,-217.773438,-895.996094,-682.128906,886.718750,-449.218750,2.499383
642,-872.558594,-726.074219,-774.902344,-400.878906,-566.894531,2.503289
643,-1000.000000,-572.753906,-803.222656,-1000.000000,-811.523438,2.507195
644,-930.664062,-645.507812,-751.953125,-361.328125,-976.562500,2.511101
645,-594.238281,-810.058594,-584.472656,972.167969,-532.226562,2.515008
646,-280.273438,-889.648438,-608.886719,-975.585938,-172.363281,2.518914
647,-701.171875,-772.460938,-812.500000,-200.195312,-658.691406,2.522820
648,-1000.000000,-607.421875,-866.699219,-1000.000000,-943.359375,2.519751
649,-988.281250,-635.253906,-801.757812,-538.574219,-989.257812,2.523658
650,-517.089844,-807.617188,-669.921875,803.710938,-845.703125,2.527564
651,-3.417969,-918.457031,-694.335938,-861.328125,-615.722656,2.531470
652,-604.003906,-787.597656,-813.964844,-7.812500,-703.613281,2.535376
653,-1000.000000,-603.515625,-822.265625,-1000.000000,-854.003906,2.539283
654,-968.750000,-612.304688,-763.671875,-737.304688,-941.894531,2.543189
655,-723.632812,-767.578125,-604.980469,578.613281,-623.046875,2.547095
656,-241.699219,-890.625000,-583.984375,-791.992188,-271.484375,2.551001
657,-565.429688,-798.339844,-769.531250,96.679688,-582.519531,2.554908
658,-993.164062,-617.675781,-840.332031,-1000.000000,-853.027344,2.558814
659,-1000.000000,-611.328125,-820.800781,-928.710938,-994.628906,2.562720
660,-698.242188,-768.554688,-688.964844,296.386719,-850.097656,2.579903
661,1.953125,-917.480469,-667.480469,-754.394531,-590.332031,2.583809
662,-402.343750,-829.101562,-795.898438,156.250000,-627.929688,2.587715
663,-1000.000000,-641.113281,-863.769531,-1000.000000,-861.328125,2.591621
664,-981.445312,-605.957031,-839.843750,-1000.000000,-1000.000000,2.595528
665,-847.167969,-728.515625,-643.554688,118.652344,-752.441406,2.599434
666,-261.230469,-876.464844,-562.011719,-748.046875,-319.824219,2.603340
667,-376.464844,-843.261719,-751.464844,194.824219,-568.359375,2.607246
668,-955.078125,-663.085938,-854.492188,-991.699219,-909.179688,2.611153
669,-1000.000000,-599.121094,-836.914062,-1000.000000,-995.605469,2.615059
670,-841.796875,-722.656250,-693.847656,-106.933594,-887.207031,2.618965
671,-139.160156,-893.554688,-629.394531,-774.414062,-612.304688,2.622871
672,-245.605469,-870.605469,-764.648438,301.269531,-564.941406,2.620205
673,-941.406250,-671.386719,-826.660156,-957.519531,-750.000000,2.624111
674,-1000.000000,-589.843750,-829.589844,-1000.000000,-971.679688,2.628017
675,-858.398438,-711.425781,-720.214844,-186.523438,-933.105469,2.631924
676,-157.714844,-886.718750,-633.300781,-811.523438,-650.878906,2.635830
677,-256.347656,-871.093750,-708.984375,478.027344,-412.597656,2.639736
678,-964.355469,-679.687500,-787.597656,-848.632812,-630.859375,2.643642
679,-993.652344,-590.820312,-835.449219,-1000.000000,-982.421875,2.647549
680,-864.746094,-698.730469,-749.023438,-211.914062,-991.699219,2.651455
681,-407.714844,-848.632812,-575.195312,-855.957031,-433.593750,2.655361
682,-292.968750,-880.859375,-659.179688,651.367188,-233.398438,2.659267
683,-794.433594,-736.328125,-850.585938,-687.988281,-764.648438,2.663174
684,-1000.000000,-603.515625,-871.093750,-1000.000000,-974.121094,2.659938
685,-935.546875,-683.105469,-770.019531,-257.324219,-971.191406,2.663844
686,-292.968750,-860.351562,-660.644531,-940.917969,-732.910156,2.667750
687,-75.195312,-910.156250,-707.031250,898.437500,-438.476562,2.671657
688,-806.152344,-738.281250,-789.550781,-384.765625,-574.707031,2.675563
689,-1000.000000,-579.589844,-801.757812,-1000.000000,-799.316406,2.679469
690,-914.550781,-648.437500,-741.210938,-356.445312,-916.015625,2.683375
691,-515.625000,-814.453125,-592.285156,969.238281,-508.789062,2.687282
692,-208.984375,-889.648438,-612.304688,-964.355469,-120.605469,2.691188
693,-662.109375,-777.343750,-818.847656,-172.851562,-705.078125,2.695094
694,-997.070312,-615.722656,-883.300781,-1000.000000,-992.675781,2.699000
695,-987.792969,-645.019531,-813.476562,-540.527344,-982.421875,2.702907
696,-479.003906,-817.871094,-678.222656,800.781250,-825.683594,2.720310
697,60.546875,-927.246094,-697.265625,-856.933594,-552.734375,2.724216
698,-562.988281,-794.921875,-820.800781,8.789062,-693.359375,2.728122
699,-1000.000000,-617.675781,-869.628906,-1000.000000,-930.175781,2.732029
700,-986.328125,-627.929688,-824.707031,-739.257812,-1000.000000,2.735935
701,-734.375000,-773.437500,-626.953125,576.660156,-685.546875,2.739841
702,-157.226562,-896.484375,-594.238281,-785.644531,-305.175781,2.743747
703,-529.785156,-809.082031,-768.066406,136.230469,-559.082031,2.747654
704,-1000.000000,-632.324219,-852.050781,-1000.000000,-862.304688,2.751560
705,-991.210938,-621.093750,-841.308594,-926.757812,-1000.000000,2.755466
706,-743.652344,-762.207031,-669.921875,311.035156,-793.945312,2.759372
707,-79.589844,-902.832031,-625.488281,-754.394531,-432.617188,2.763279
708,-381.835938,-834.960938,-791.992188,155.761719,-595.703125,2.759902
709,-976.562500,-652.832031,-868.652344,-1000.000000,-882.812500,2.763808
710,-1000.000000,-612.792969,-838.867188,-1000.000000,-996.582031,2.767715
711,-766.113281,-748.535156,-688.476562,65.429688,-876.953125,2.771621
712,-28.808594,-907.714844,-645.019531,-751.953125,-628.417969,2.775527
713,-350.585938,-843.261719,-749.511719,248.535156,-468.261719,2.779433
714,-1000.000000,-642.089844,-801.757812,-975.585938,-621.093750,2.783340
715,-991.699219,-592.285156,-824.218750,-1000.000000,-964.843750,2.787246
716,-802.246094,-728.515625,-707.031250,-103.027344,-922.851562,2.791152
717,-261.230469,-869.140625,-564.941406,-777.832031,-323.242188,2.795058
718,-391.113281,-848.144531,-687.988281,352.050781,-248.535156,2.798965
719,-916.503906,-686.523438,-853.515625,-933.593750,-791.015625,2.802871
720,-1000.000000,-599.609375,-864.257812,-1000.000000,-994.628906,2.800868
721,-833.007812,-714.843750,-737.792969,-185.058594,-945.800781,2.804774
722,-103.027344,-886.718750,-648.925781,-817.382812,-671.875000,2.808680
723,-70.312500,-893.066406,-755.371094,525.878906,-516.113281,2.812586
724,-816.894531,-716.308594,-854.980469,-821.289062,-747.558594,2.816493
725,-1000.000000,-587.890625,-824.707031,-1000.000000,-872.558594,2.820399
726,-846.679688,-685.058594,-709.960938,-190.917969,-815.917969,2.824305
727,-321.777344,-847.167969,-572.265625,-867.187500,-348.632812,2.828211
728,-150.878906,-877.441406,-660.156250,733.398438,-150.390625,2.832118
729,-700.683594,-739.257812,-856.933594,-604.980469,-702.148438,2.836024
730,-1000.000000,-606.933594,-882.812500,-1000.000000,-966.308594,2.839930
731,-850.585938,-688.476562,-786.132812,-238.281250,-989.746094,2.843836
732,-143.066406,-861.816406,-673.339844,-946.289062,-725.097656,2.859865
733,147.949219,-908.691406,-714.843750,933.105469,-369.628906,2.863772
734,-593.750000,-757.324219,-836.425781,-330.078125,-632.812500,2.867678
735,-1000.000000,-610.839844,-892.089844,-1000.000000,-958.984375,2.871584
736,-875.976562,-669.921875,-805.175781,-334.960938,-1000.000000,2.875490
737,-265.136719,-837.402344,-653.320312,970.214844,-664.550781,2.879397
738,170.410156,-911.132812,-679.687500,-942.382812,-266.601562,2.883303
739,-480.468750,-776.367188,-822.265625,-112.304688,-543.945312,2.887209
740,-1000.000000,-611.816406,-882.812500,-1000.000000,-902.832031,2.891115
741,-917.968750,-643.066406,-811.523438,-488.281250,-996.093750,2.895022
742,-475.585938,-795.898438,-625.488281,838.867188,-549.316406,2.898928
743,3.906250,-894.531250,-617.187500,-856.445312,-135.253906,2.902834
744,-431.152344,-795.898438,-805.175781,53.222656,-573.730469,2.915769
745,-1000.000000,-625.488281,-873.046875,-1000.000000,-912.109375,2.919675
746,-984.863281,-630.859375,-820.800781,-738.769531,-1000.000000,2.923581
747,-511.718750,-789.550781,-675.781250,579.589844,-800.292969,2.927487
748,78.125000,-908.691406,-650.390625,-786.132812,-403.320312,2.931394
749,-465.332031,-794.433594,-756.835938,141.113281,-417.480469,2.935300
750,-1000.000000,-607.910156,-807.128906,-1000.000000,-689.941406,2.939206
751,-981.933594,-604.492188,-818.359375,-936.523438,-977.539062,2.943112
752,-685.546875,-759.277344,-679.687500,293.945312,-808.105469,2.947019
753,-142.089844,-881.347656,-583.496094,-753.417969,-225.097656,2.950925
754,-421.875000,-819.335938,-754.882812,156.250000,-433.105469,2.954831
755,-959.472656,-653.808594,-876.464844,-1000.000000,-901.855469,2.958737
756,-1000.000000,-608.886719,-848.144531,-1000.000000,-995.605469,2.976530
757,-732.910156,-747.070312,-697.265625,50.781250,-875.976562,2.980437
758,12.207031,-904.296875,-644.042969,-752.929688,-608.886719,2.984343
759,-230.468750,-853.027344,-777.832031,226.074219,-590.820312,2.988249
760,-949.218750,-661.621094,-854.003906,-986.816406,-834.960938,2.992155
761,-1000.000000,-581.054688,-808.593750,-1000.000000,-950.683594,2.996062
762,-811.523438,-706.542969,-662.597656,-97.167969,-800.292969,2.999968
763,-290.039062,-863.769531,-555.664062,-774.902344,-252.441406,3.003874
764,-362.792969,-852.050781,-694.335938,330.078125,-235.839844,3.007780
765,-891.601562,-690.917969,-858.886719,-942.382812,-831.054688,3.011687
766,-1000.000000,-599.609375,-854.980469,-1000.000000,-984.375000,3.015593
767,-833.496094,-711.914062,-729.492188,-195.800781,-968.261719,3.019499
768,-132.324219,-883.300781,-642.089844,-812.988281,-705.566406,3.016195
769,-124.511719,-888.183594,-749.511719,487.304688,-529.296875,3.020102
770,-857.421875,-709.472656,-848.632812,-852.050781,-809.082031,3.024008
771,-1000.000000,-598.144531,-853.027344,-1000.000000,-979.003906,3.027914
772,-885.742188,-694.824219,-744.628906,-223.632812,-996.582031,3.031820
773,-295.410156,-862.792969,-622.070312,-869.140625,-694.824219,3.035727
774,-240.234375,-880.859375,-678.222656,711.914062,-339.355469,3.039633
775,-872.558594,-715.820312,-811.035156,-639.648438,-692.871094,3.043539
776,-1000.000000,-590.820312,-854.492188,-1000.000000,-976.562500,3.047445
777,-902.343750,-675.292969,-773.925781,-278.808594,-1000.000000,3.051352
778,-482.910156,-829.101562,-587.890625,-945.312500,-555.664062,3.055258
779,-347.167969,-876.464844,-601.074219,883.300781,-126.464844,3.059164
780,-791.992188,-750.000000,-802.246094,-416.992188,-697.753906,3.055770
781,-987.792969,-601.562500,-857.910156,-1000.000000,-986.328125,3.059676
782,-982.910156,-651.855469,-778.320312,-393.554688,-982.910156,3.063582
783,-446.289062,-827.636719,-654.785156,933.105469,-807.128906,3.067489
784,-62.988281,-917.480469,-694.824219,-936.035156,-525.878906,3.071395
785,-728.027344,-761.230469,-774.902344,-123.046875,-547.851562,3.075301
786,-1000.000000,-592.285156,-808.105469,-1000.000000,-793.945312,3.079207
787,-966.796875,-641.113281,-799.804688,-577.148438,-1000.000000,3.083114
788,-626.953125,-796.386719,-632.324219,766.113281,-723.144531,3.087020
789,-250.000000,-888.183594,-593.750000,-847.167969,-190.429688,3.090926
790,-669.433594,-787.597656,-781.738281,9.277344,-595.703125,3.094832
791,-984.863281,-623.535156,-871.093750,-1000.000000,-982.421875,3.098739
792,-1000.000000,-626.953125,-818.847656,-801.269531,-995.117188,3.094730
793,-666.992188,-783.691406,-655.273438,483.398438,-799.316406,3.098636
794,-12.695312,-919.921875,-655.761719,-778.808594,-533.691406,3.102543
795,-499.023438,-813.476562,-788.574219,111.328125,-604.492188,3.106449
796,-1000.000000,-628.417969,-842.773438,-1000.000000,-830.566406,3.110355
797,-991.699219,-604.980469,-801.269531,-953.125000,-1000.000000,3.114261
798,-760.742188,-745.605469,-633.300781,249.023438,-785.156250,3.118168
799,-243.652344,-882.324219,-563.964844,-750.976562,-217.285156,3.122074
800,-514.160156,-819.824219,-732.910156,149.414062,-419.921875,3.125980
801,-963.378906,-654.296875,-862.304688,-1000.000000,-930.175781,3.129886
802,-1000.000000,-607.910156,-838.378906,-1000.000000,-990.234375,3.133793
803,-771.484375,-744.140625,-699.218750,-27.832031,-905.761719,3.137699
804,-47.851562,-906.738281,-647.460938,-760.253906,-589.355469,3.155902
805,-278.808594,-856.933594,-777.832031,232.421875,-533.203125,3.159809
806,-950.195312,-665.527344,-854.492188,-984.375000,-816.406250,3.163715
807,-1000.000000,-596.679688,-841.308594,-1000.000000,-1000.000000,3.167621
808,-844.238281,-714.355469,-696.777344,-148.437500,-869.140625,3.171527
809,-214.355469,-874.511719,-605.468750,-785.644531,-459.960938,3.175434
810,-351.074219,-852.050781,-714.355469,377.929688,-337.890625,3.179340
811,-952.148438,-678.222656,-829.589844,-925.292969,-735.351562,3.183246
812,-1000.000000,-597.656250,-840.820312,-1000.000000,-992.675781,3.187152
813,-825.195312,-718.750000,-729.980469,-192.871094,-997.070312,3.191059
814,-282.714844,-868.652344,-586.425781,-820.312500,-473.144531,3.194965
815,-305.175781,-868.652344,-679.199219,524.902344,-281.738281,3.198871
816,-840.820312,-713.378906,-856.445312,-819.824219,-832.031250,3.190696
817,-1000.000000,-596.679688,-866.699219,-1000.000000,-979.492188,3.194602
818,-891.601562,-693.847656,-757.324219,-218.750000,-983.398438,3.198509
819,-207.519531,-874.511719,-655.761719,-878.417969,-795.410156,3.202415
820,-86.425781,-909.667969,-729.980469,741.699219,-575.195312,3.206321
821,-827.148438,-725.097656,-805.664062,-596.679688,-686.035156,3.210227
822,-1000.000000,-581.542969,-809.570312,-1000.000000,-863.281250,3.214134
823,-937.011719,-671.386719,-742.187500,-250.488281,-991.699219,3.218040
824,-494.140625,-833.984375,-580.566406,-942.382812,-532.226562,3.221946
825,-268.554688,-888.671875,-618.164062,910.644531,-150.878906,3.225852
826,-750.488281,-765.136719,-818.847656,-366.210938,-685.546875,3.229759
827,-991.699219,-616.699219,-875.488281,-1000.000000,-976.562500,3.233665
828,-973.632812,-667.480469,-795.410156,-378.906250,-995.117188,3.255841
829,-399.414062,-842.773438,-669.921875,947.265625,-791.503906,3.259747
830,43.945312,-924.804688,-707.519531,-940.429688,-479.980469,3.263653
831,-627.929688,-782.714844,-833.007812,-131.347656,-689.941406,3.267559
832,-1000.000000,-615.722656,-871.582031,-1000.000000,-950.195312,3.271466
833,-978.027344,-634.277344,-781.250000,-524.414062,-959.472656,3.275372
834,-615.722656,-789.062500,-603.515625,808.593750,-591.308594,3.279278
835,-181.152344,-891.113281,-595.214844,-850.097656,-115.234375,3.283184
836,-613.769531,-789.550781,-782.714844,45.898438,-503.417969,3.287091
837,-981.445312,-627.929688,-887.207031,-1000.000000,-968.261719,3.290997
838,-1000.000000,-623.046875,-815.917969,-735.351562,-976.562500,3.294903
839,-643.066406,-780.273438,-645.996094,583.007812,-744.140625,3.298809
840,63.964844,-921.875000,-666.503906,-788.085938,-482.910156,3.295981
841,-402.343750,-821.289062,-811.035156,127.929688,-598.144531,3.299887
842,-991.699219,-635.742188,-868.164062,-1000.000000,-866.210938,3.303793
843,-1000.000000,-613.769531,-842.285156,-937.988281,-1000.000000,3.307700
844,-666.992188,-764.648438,-696.777344,282.226562,-883.300781,3.311606
845,-18.066406,-904.785156,-636.230469,-751.464844,-448.242188,3.315512
846,-451.171875,-821.777344,-743.164062,182.128906,-379.882812,3.319418
847,-1000.000000,-647.949219,-838.867188,-1000.000000,-791.015625,3.323325
848,-1000.000000,-611.328125,-842.773438,-1000.000000,-1000.000000,3.327231
849,-743.164062,-750.488281,-705.078125,53.710938,-878.906250,3.331137
850,-198.242188,-881.835938,-577.148438,-753.906250,-277.343750,3.335043
851,-431.640625,-832.519531,-705.078125,240.722656,-294.921875,3.338950
852,-916.503906,-679.687500,-873.535156,-982.910156,-884.277344,3.330417
853,-1000.000000,-599.609375,-833.984375,-1000.000000,-973.632812,3.334323
854,-782.226562,-722.656250,-687.500000,-85.449219,-876.464844,3.338229
855,-14.648438,-906.250000,-649.414062,-776.855469,-612.792969,3.342136
856,-141.601562,-881.347656,-768.554688,368.652344,-525.390625,3.346042
857,-893.066406,-682.128906,-832.519531,-922.363281,-710.449219,3.349948
858,-1000.000000,-578.125000,-800.292969,-1000.000000,-855.957031,3.353854
859,-770.019531,-715.820312,-737.304688,-187.011719,-990.722656,3.357761
860,-210.449219,-876.953125,-614.257812,-822.265625,-477.050781,3.361667
861,-309.082031,-866.210938,-664.062500,546.386719,-134.765625,3.365573
862,-824.707031,-717.773438,-854.492188,-800.781250,-719.238281,3.369479
863,-1000.000000,-602.050781,-875.488281,-1000.000000,-978.515625,3.373386
864,-860.351562,-701.660156,-771.972656,-216.796875,-993.164062,3.390783
865,-142.578125,-878.906250,-667.968750,-865.234375,-748.046875,3.394689
866,8.300781,-909.179688,-735.351562,709.472656,-503.906250,3.398595
867,-739.746094,-743.164062,-856.933594,-652.343750,-790.527344,3.402501
868,-1000.000000,-593.261719,-857.421875,-1000.000000,-960.449219,3.406408
869,-902.832031,-661.132812,-743.164062,-239.746094,-919.921875,3.410314
870,-416.015625,-827.636719,-594.726562,-946.777344,-495.605469,3.414220
871,-179.199219,-883.789062,-639.648438,926.757812,-134.277344,3.418126
872,-695.800781,-760.253906,-828.125000,-336.425781,-640.625000,3.422033
873,-1000.000000,-613.769531,-875.000000,-1000.000000,-972.167969,3.425939
874,-941.894531,-667.480469,-797.363281,-382.812500,-1000.000000,3.429845
875,-375.976562,-834.960938,-654.785156,939.941406,-773.437500,3.433751
876,71.289062,-912.597656,-684.570312,-930.175781,-473.144531,3.435869
877,-568.359375,-778.320312,-826.171875,-106.445312,-733.886719,3.439775
878,-1000.000000,-612.304688,-873.535156,-1000.000000,-960.937500,3.443681
879,-969.726562,-641.601562,-821.777344,-553.222656,-1000.000000,3.447587
880,-474.609375,-812.988281,-671.875000,776.855469,-823.730469,3.451494
881,10.742188,-912.109375,-647.949219,-829.589844,-354.003906,3.455400
882,-581.542969,-786.132812,-761.230469,102.539062,-409.667969,3.459306
883,-1000.000000,-607.421875,-808.593750,-1000.000000,-750.000000,3.463212
884,-985.839844,-617.675781,-788.574219,-777.343750,-944.824219,3.467119
885,-559.082031,-790.527344,-679.687500,540.527344,-878.417969,3.471025
886,-73.242188,-895.507812,-597.167969,-781.250000,-251.464844,3.474931
887,-515.136719,-804.199219,-743.652344,137.207031,-404.296875,3.478837
888,-968.261719,-644.042969,-877.441406,-1000.000000,-954.589844,3.470772
889,-1000.000000,-619.628906,-846.679688,-937.500000,-990.234375,3.474679
890,-624.511719,-773.925781,-704.589844,286.132812,-905.273438,3.478585
891,116.210938,-918.945312,-661.621094,-751.953125,-572.753906,3.482491
892,-268.554688,-838.378906,-795.898438,178.222656,-559.082031,3.486397
893,-962.890625,-636.718750,-826.660156,-1000.000000,-757.812500,3.490304
894,-1000.000000,-583.007812,-784.667969,-1000.000000,-883.789062,3.494210
895,-650.390625,-752.441406,-712.402344,50.781250,-1000.000000,3.498116
896,-83.984375,-890.625000,-589.843750,-754.394531,-396.484375,3.502022
897,-398.437500,-833.496094,-697.265625,258.300781,-229.492188,3.505929
898,-902.832031,-677.734375,-851.562500,-971.679688,-865.722656,3.509835
899,-1000.000000,-599.609375,-824.707031,-1000.000000,-985.351562,3.513741
900,-730.957031,-745.117188,-729.980469,-112.304688,-976.074219,3.530747
901,57.617188,-914.550781,-668.457031,-782.714844,-746.582031,3.534653
902,-79.589844,-877.441406,-778.808594,391.601562,-574.707031,3.538560
903,-847.656250,-682.617188,-866.210938,-915.527344,-785.644531,3.542466
904,-1000.000000,-579.101562,-859.375000,-1000.000000,-965.820312,3.546372
905,-809.082031,-700.195312,-729.492188,-167.480469,-921.386719,3.550278
906,-234.863281,-860.839844,-570.312500,-825.195312,-330.078125,3.554185
907,-247.558594,-866.699219,-646.972656,579.589844,-83.007812,3.558091
908,-796.386719,-728.515625,-830.078125,-769.042969,-724.609375,3.561997
909,-1000.000000,-610.351562,-868.164062,-1000.000000,-991.699219,3.565903
910,-822.753906,-702.636719,-771.484375,-208.007812,-984.375000,3.569810
911,-87.402344,-878.417969,-671.386719,-885.253906,-757.324219,3.573716
912,64.453125,-906.738281,-745.117188,776.367188,-518.066406,3.577581
913,-696.777344,-729.980469,-840.820312,-552.734375,-690.917969,3.581488
914,-1000.000000,-583.984375,-845.703125,-1000.000000,-864.257812,3.585394
915,-874.023438,-671.386719,-785.644531,-272.949219,-1000.000000,3.589300
916,-226.562500,-846.191406,-668.457031,-970.214844,-763.671875,3.593206
917,-7.324219,-903.320312,-680.175781,959.472656,-321.289062,3.597113
918,-707.031250,-747.558594,-760.253906,-285.156250,-470.703125,3.601019
919,-1000.000000,-601.562500,-804.199219,-1000.000000,-836.425781,3.604925
920,-905.273438,-670.410156,-790.039062,-399.902344,-1000.000000,3.608831
921,-371.093750,-830.566406,-650.878906,931.152344,-806.152344,3.612738
922,-98.632812,-885.253906,-625.000000,-925.781250,-264.648438,3.616644
923,-640.625000,-760.742188,-798.339844,-104.003906,-520.996094,3.620550
924,-1000.000000,-616.210938,-890.136719,-1000.000000,-949.707031,3.618060
925,-960.937500,-646.972656,-833.007812,-590.332031,-1000.000000,3.621966
926,-442.382812,-820.800781,-680.664062,746.093750,-816.406250,3.625872
927,128.417969,-930.664062,-672.363281,-831.542969,-458.984375,3.629779
928,-442.382812,-808.593750,-803.710938,64.453125,-606.445312,3.633685
929,-1000.000000,-615.722656,-832.031250,-1000.000000,-799.804688,3.637591
930,-993.164062,-598.632812,-773.437500,-785.644531,-821.289062,3.641497
931,-583.007812,-767.089844,-651.855469,523.925781,-743.652344,3.645404
932,-87.890625,-885.742188,-592.773438,-778.320312,-229.980469,3.649310
933,-518.066406,-797.851562,-734.375000,131.835938,-344.238281,3.653216
934,-971.679688,-656.250000,-861.328125,-1000.000000,-893.554688,3.657122
935,-1000.000000,-634.765625,-835.449219,-961.425781,-997.070312,3.661029
936,-610.839844,-773.437500,-713.867188,241.210938,-902.832031,3.676394
937,114.746094,-912.109375,-679.199219,-750.000000,-538.574219,3.680300
938,-277.343750,-823.242188,-810.546875,177.734375,-556.640625,3.684207
939,-958.496094,-642.578125,-881.835938,-1000.000000,-894.042969,3.688113
940,-1000.000000,-601.074219,-841.308594,-1000.000000,-984.863281,3.692019
941,-727.050781,-741.210938,-687.988281,54.199219,-885.742188,3.695925
942,-179.199219,-881.835938,-556.152344,-753.906250,-264.160156,3.699832
943,-452.148438,-827.148438,-666.503906,250.976562,-107.910156,3.703738
944,-927.246094,-664.550781,-815.429688,-970.214844,-716.308594,3.707644
945,-1000.000000,-594.238281,-828.613281,-1000.000000,-953.125000,3.711550
946,-746.582031,-729.492188,-748.046875,-140.625000,-996.582031,3.715457
947,20.996094,-895.019531,-677.734375,-787.109375,-675.781250,3.719363
948,-121.093750,-866.210938,-775.878906,392.578125,-452.148438,3.711313
949,-860.351562,-687.988281,-875.488281,-916.015625,-801.757812,3.715220
950,-1000.000000,-598.632812,-865.234375,-1000.000000,-976.074219,3.719126
951,-785.644531,-723.144531,-743.652344,-192.382812,-1000.000000,3.723032
952,-52.246094,-897.949219,-634.277344,-833.007812,-695.800781,3.726938
953,-132.812500,-891.113281,-674.804688,610.351562,-298.339844,3.730845
954,-857.910156,-706.054688,-781.738281,-753.417969,-642.578125,3.734751
955,-1000.000000,-585.937500,-836.914062,-1000.000000,-955.566406,3.738657
956,-807.128906,-687.500000,-787.109375,-214.355469,-1000.000000,3.742563
957,-223.144531,-847.167969,-644.042969,-882.324219,-649.902344,3.746470
958,-219.726562,-869.140625,-640.625000,760.742188,-134.765625,3.750376
959,-785.156250,-732.910156,-796.875000,-581.542969,-565.917969,3.754282
960,-1000.000000,-615.234375,-853.027344,-1000.000000,-947.265625,3.751123
961,-871.582031,-692.871094,-778.808594,-281.250000,-1000.000000,3.755029
962,-221.679688,-859.375000,-655.273438,-959.472656,-789.062500,3.758935
963,98.632812,-912.597656,-702.636719,921.875000,-513.671875,3.762841
964,-596.679688,-753.906250,-834.472656,-355.957031,-729.003906,3.766748
965,-1000.000000,-578.125000,-832.519531,-1000.000000,-860.351562,3.770654
966,-900.390625,-633.789062,-762.695312,-414.062500,-923.339844,3.774560
967,-339.843750,-826.171875,-656.738281,930.664062,-753.417969,3.778466
968,-76.660156,-894.531250,-611.816406,-955.566406,-201.660156,3.782373
969,-629.882812,-775.390625,-764.160156,-161.132812,-495.605469,3.786279
970,-999.023438,-630.371094,-874.023438,-1000.000000,-952.148438,3.790185
971,-958.984375,-649.902344,-822.753906,-594.238281,-1000.000000,3.794091
972,-424.316406,-811.035156,-687.011719,745.117188,-833.496094,3.810798
973,127.441406,-908.203125,-677.246094,-847.167969,-462.402344,3.814704
974,-467.773438,-782.714844,-787.109375,45.898438,-599.121094,3.818610
975,-1000.000000,-621.093750,-854.492188,-1000.000000,-917.480469,3.822517
976,-993.164062,-631.347656,-822.265625,-797.363281,-1000.000000,3.826423
977,-590.820312,-789.062500,-658.691406,508.300781,-838.378906,3.830329
978,-111.328125,-896.484375,-568.847656,-774.902344,-233.398438,3.834235
979,-544.433594,-803.710938,-716.796875,142.578125,-325.683594,3.838142
980,-969.238281,-647.949219,-878.906250,-1000.000000,-906.250000,3.842048
981,-1000.000000,-615.234375,-857.421875,-963.867188,-994.628906,3.845954
982,-600.097656,-769.531250,-727.539062,237.304688,-919.433594,3.849860
983,126.953125,-919.433594,-672.363281,-749.023438,-574.218750,3.853767
984,-263.671875,-845.214844,-776.855469,183.105469,-523.925781,3.850738
985,-947.265625,-666.992188,-851.074219,-1000.000000,-848.144531,3.854644
986,-1000.000000,-614.746094,-827.636719,-1000.000000,-989.257812,3.858550
987,-672.851562,-751.953125,-713.867188,3.906250,-930.175781,3.862457
988,70.312500,-905.273438,-662.109375,-759.277344,-612.304688,3.866363
989,-289.550781,-844.726562,-741.210938,301.269531,-369.628906,3.870269
990,-962.890625,-654.785156,-810.546875,-953.613281,-578.125000,3.874175
991,-1000.000000,-579.589844,-793.457031,-1000.000000,-810.058594,3.878082
992,-692.871094,-734.375000,-722.656250,-131.835938,-1000.000000,3.881988
993,-77.636719,-887.695312,-616.699219,-790.039062,-554.687500,3.885894
994,-343.750000,-842.773438,-658.203125,410.644531,-152.343750,3.889800
995,-870.605469,-697.265625,-843.261719,-901.855469,-756.347656,3.893707
996,-1000.000000,-603.027344,-867.675781,-1000.000000,-1000.000000,3.895619
997,-782.226562,-715.332031,-755.859375,-191.406250,-979.492188,3.899525
998,-31.250000,-889.160156,-661.132812,-835.937500,-727.050781,3.903431
999,5.859375,-893.066406,-737.792969,610.351562,-479.003906,3.907338
1000,-745.605469,-722.167969,-853.515625,-745.117188,-774.902344,3.911244
1001,-1000.000000,-584.960938,-833.496094,-1000.000000,-909.667969,3.915150
1002,-833.984375,-685.058594,-726.562500,-201.171875,-908.691406,3.919056
1003,-220.703125,-865.234375,-615.234375,-891.601562,-605.957031,3.922963
1004,-166.015625,-876.464844,-625.976562,804.199219,-145.507812,3.926869
1005,-750.488281,-737.792969,-797.851562,-514.648438,-630.859375,3.930775
1006,-1000.000000,-612.792969,-876.464844,-1000.000000,-1000.000000,3.934681
1007,-860.351562,-681.152344,-793.945312,-282.226562,-996.582031,3.938588
1008,-214.355469,-854.003906,-669.433594,-979.003906,-793.945312,3.955871
1009,123.535156,-914.062500,-703.125000,978.515625,-476.074219,3.959778
1010,-553.710938,-774.414062,-837.402344,-260.253906,-757.324219,3.963684
1011,-1000.000000,-613.281250,-860.351562,-1000.000000,-964.843750,3.967590
1012,-905.273438,-659.179688,-789.062500,-410.156250,-1000.000000,3.971496
1013,-383.300781,-825.195312,-648.437500,915.039062,-732.421875,3.975403
1014,-104.980469,-883.789062,-599.609375,-905.761719,-94.238281,3.979309
1015,-628.417969,-765.625000,-759.277344,-56.152344,-395.996094,3.983215
1016,-1000.000000,-622.558594,-874.511719,-1000.000000,-941.894531,3.987121
1017,-956.542969,-645.507812,-816.894531,-613.769531,-995.117188,3.991028
1018,-393.554688,-817.382812,-687.500000,715.820312,-851.074219,3.994934
1019,116.699219,-914.062500,-662.597656,-814.941406,-399.902344,3.998840
1020,-474.121094,-793.457031,-776.855469,120.605469,-489.257812,3.995807
1021,-1000.000000,-631.835938,-874.511719,-1000.000000,-904.785156,3.999714
1022,-983.398438,-629.882812,-840.332031,-814.453125,-997.558594,4.003620
1023,-486.328125,-793.945312,-702.636719,487.792969,-894.531250,4.007526
1024,155.761719,-923.828125,-670.410156,-770.996094,-556.640625,4.011432
1025,-390.625000,-817.382812,-754.882812,162.109375,-440.917969,4.015339
1026,-1000.000000,-624.511719,-802.734375,-1000.000000,-663.574219,4.019245
1027,-1000.000000,-595.703125,-790.527344,-976.074219,-870.605469,4.023151
1028,-538.085938,-770.996094,-720.703125,217.773438,-990.234375,4.027057
1029,4.394531,-895.996094,-615.722656,-748.535156,-382.324219,4.030964
1030,-479.003906,-807.617188,-692.382812,189.453125,-175.292969,4.034870
1031,-940.917969,-663.085938,-869.140625,-1000.000000,-859.863281,4.038776
1032,-1000.000000,-613.281250,-858.398438,-1000.000000,-997.070312,4.035836
1033,-648.925781,-755.859375,-736.816406,-4.882812,-960.937500,4.039742
1034,97.167969,-912.597656,-661.621094,-760.253906,-601.562500,4.043648
1035,-167.480469,-857.910156,-756.347656,285.644531,-462.402344,4.047554
1036,-877.929688,-677.734375,-859.863281,-963.378906,-851.074219,4.051461
1037,-1000.000000,-583.007812,-812.011719,-1000.000000,-923.339844,4.055367
1038,-744.628906,-710.449219,-690.917969,-120.605469,-849.609375,4.059273
1039,-112.304688,-877.441406,-602.050781,-788.574219,-464.355469,4.063179
1040,-300.292969,-847.656250,-665.527344,419.433594,-140.625000,4.067086
1041,-862.304688,-699.707031,-841.796875,-893.066406,-689.453125,4.070992
1042,-1000.000000,-606.933594,-871.582031,-1000.000000,-988.281250,4.074898
1043,-772.460938,-720.214844,-760.253906,-194.824219,-991.210938,4.078804
1044,-29.785156,-891.601562,-666.992188,-838.867188,-722.656250,4.090686
1045,28.808594,-895.996094,-739.746094,618.652344,-465.332031,4.094592
1046,-721.679688,-726.074219,-853.515625,-734.375000,-783.691406,4.098498
1047,-1000.000000,-598.144531,-867.187500,-1000.000000,-970.703125,4.102405
1048,-803.710938,-690.917969,-771.484375,-218.750000,-1000.000000,4.106311
1049,-219.726562,-851.562500,-621.093750,-906.738281,-637.695312,4.110217
1050,-173.339844,-869.140625,-615.722656,838.378906,-91.308594,4.114123
1051,-738.281250,-734.375000,-790.039062,-475.097656,-537.597656,4.118030
1052,-1000.000000,-610.351562,-879.882812,-1000.000000,-975.097656,4.121936
1053,-849.609375,-679.199219,-797.851562,-286.621094,-1000.000000,4.125842
1054,-205.566406,-851.562500,-670.410156,-986.816406,-759.765625,4.129748
1055,134.765625,-909.667969,-698.730469,995.605469,-434.082031,4.133655
1056,-521.484375,-764.160156,-829.589844,-229.492188,-702.148438,4.136497
1057,-1000.000000,-606.445312,-871.582031,-1000.000000,-944.824219,4.140403
1058,-894.042969,-653.320312,-799.804688,-420.410156,-1000.000000,4.144310
1059,-288.085938,-825.195312,-665.527344,893.066406,-819.335938,4.148216
1060,144.531250,-910.644531,-671.386719,-877.441406,-407.226562,4.152122
1061,-497.558594,-771.972656,-768.554688,30.273438,-489.746094,4.156028
1062,-1000.000000,-598.632812,-811.035156,-1000.000000,-768.066406,4.159935
1063,-935.546875,-631.835938,-794.921875,-625.488281,-963.378906,4.163841
1064,-379.394531,-808.593750,-684.570312,720.214844,-870.117188,4.167747
1065,-35.156250,-887.207031,-601.562500,-817.871094,-196.777344,4.171653
1066,-588.378906,-773.925781,-723.632812,99.121094,-308.105469,4.175560
1067,-983.886719,-633.789062,-873.046875,-1000.000000,-935.058594,4.179466
1068,-980.957031,-628.417969,-833.007812,-832.519531,-992.187500,4.174857
1069,-460.449219,-792.480469,-702.148438,455.566406,-914.062500,4.178764
1070,204.589844,-920.410156,-671.386719,-768.554688,-589.355469,4.182670
1071,-291.015625,-821.289062,-788.085938,159.667969,-590.820312,4.186576
1072,-965.332031,-645.507812,-869.628906,-1000.000000,-910.644531,4.190482
1073,-1000.000000,-595.214844,-795.410156,-959.472656,-903.808594,4.194389
1074,-555.175781,-752.441406,-682.617188,249.511719,-846.191406,4.198295
1075,37.597656,-894.042969,-623.535156,-748.535156,-364.746094,4.202201
1076,-443.359375,-812.011719,-687.988281,199.707031,-144.531250,4.206107
1077,-949.707031,-663.574219,-853.027344,-995.605469,-797.363281,4.210014
1078,-1000.000000,-617.187500,-851.562500,-1000.000000,-1000.000000,4.213920
1079,-671.875000,-747.070312,-705.078125,-12.695312,-875.976562,4.217826
1080,74.218750,-899.902344,-643.554688,-762.207031,-488.769531,4.236053
1081,-78.613281,-867.187500,-766.601562,307.617188,-500.000000,4.239959
1082,-845.214844,-687.988281,-859.375000,-951.660156,-859.375000,4.243866
1083,-1000.000000,-605.957031,-848.632812,-1000.000000,-966.308594,4.247772
1084,-664.062500,-737.304688,-752.441406,-140.136719,-1000.000000,4.251678
1085,-45.410156,-875.488281,-630.371094,-800.292969,-495.605469,4.255584
1086,-231.933594,-836.425781,-684.570312,489.257812,-111.328125,4.259491
1087,-820.800781,-690.429688,-849.609375,-850.097656,-695.312500,4.263397
1088,-1000.000000,-597.167969,-869.628906,-1000.000000,-982.421875,4.267303
1089,-722.656250,-718.261719,-753.906250,-187.011719,-1000.000000,4.271209
1090,-27.832031,-888.671875,-622.070312,-849.609375,-674.804688,4.275116
1091,-8.300781,-891.601562,-673.339844,665.527344,-353.515625,4.279022
1092,-680.664062,-728.515625,-834.960938,-684.082031,-786.132812,4.276354
1093,-1000.000000,-592.285156,-886.718750,-1000.000000,-989.257812,4.280260
1094,-823.730469,-672.851562,-786.132812,-228.515625,-980.957031,4.284167
1095,-174.316406,-841.796875,-649.902344,-920.410156,-661.621094,4.288073
1096,85.449219,-899.902344,-708.007812,863.281250,-414.062500,4.291979
1097,-613.281250,-744.628906,-791.503906,-429.687500,-589.355469,4.295885
1098,-1000.000000,-593.261719,-803.222656,-1000.000000,-770.507812,4.299792
1099,-828.125000,-673.339844,-770.507812,-336.425781,-993.164062,4.303698
1100,-157.226562,-850.097656,-670.898438,988.769531,-850.585938,4.307604
1101,-25.878906,-883.789062,-625.000000,-987.792969,-191.894531,4.311510
1102,-664.062500,-745.605469,-756.347656,-219.238281,-434.082031,4.315417
1103,-1000.000000,-616.699219,-877.441406,-1000.000000,-986.328125,4.319323
1104,-885.253906,-654.785156,-814.941406,-456.542969,-994.140625,4.319558
1105,-253.417969,-832.519531,-687.988281,879.394531,-800.781250,4.323465
1106,187.500000,-921.875000,-693.359375,-886.718750,-427.246094,4.327371
1107,-441.894531,-792.968750,-814.453125,-25.390625,-632.812500,4.331277
1108,-1000.000000,-628.906250,-874.023438,-1000.000000,-963.867188,4.335183
1109,-978.515625,-625.976562,-781.250000,-634.277344,-898.925781,4.339090
1110,-455.078125,-790.039062,-644.042969,698.242188,-687.988281,4.342996
1111,-33.691406,-884.277344,-604.003906,-812.500000,-192.871094,4.346902
1112,-587.890625,-771.972656,-707.519531,103.515625,-268.554688,4.350808
1113,-991.699219,-633.300781,-859.375000,-1000.000000,-903.320312,4.354715
1114,-971.191406,-629.882812,-824.218750,-863.769531,-998.046875,4.358621
1115,-435.058594,-797.363281,-695.800781,410.644531,-917.968750,4.362527
1116,211.914062,-921.386719,-681.152344,-763.183594,-573.242188,4.375879
1117,-302.734375,-819.824219,-785.156250,147.949219,-555.664062,4.379785
1118,-975.097656,-634.277344,-877.929688,-1000.000000,-906.738281,4.383692
1119,-1000.000000,-588.378906,-838.867188,-997.558594,-988.281250,4.387598
1120,-552.246094,-747.070312,-707.519531,154.785156,-893.554688,4.391504
1121,98.632812,-905.273438,-644.042969,-749.023438,-474.121094,4.395410
1122,-342.773438,-835.937500,-701.171875,223.144531,-307.128906,4.399317
1123,-959.960938,-669.433594,-801.269531,-992.187500,-762.695312,4.403223
1124,-1000.000000,-608.886719,-807.617188,-1000.000000,-988.281250,4.407129
1125,-669.433594,-734.863281,-714.355469,-12.207031,-948.242188,4.411035
1126,-25.390625,-870.117188,-641.113281,-762.207031,-464.843750,4.414942
1127,-350.097656,-805.664062,-715.332031,293.457031,-153.320312,4.418848
1128,-904.296875,-666.992188,-858.886719,-954.589844,-753.906250,4.411316
1129,-1000.000000,-605.957031,-846.191406,-1000.000000,-1000.000000,4.415223
1130,-706.542969,-740.234375,-712.890625,-166.015625,-951.171875,4.419129
1131,49.804688,-916.015625,-629.394531,-801.757812,-628.906250,4.423035
1132,-40.527344,-883.789062,-724.121094,458.007812,-428.222656,4.426941
1133,-797.851562,-679.687500,-810.546875,-871.582031,-642.578125,4.430848
1134,-1000.000000,-562.988281,-816.894531,-1000.000000,-848.632812,4.434754
1135,-739.257812,-693.847656,-766.601562,-198.242188,-989.746094,4.438660
1136,-60.058594,-872.070312,-658.691406,-851.562500,-619.628906,4.442566
1137,-172.851562,-869.140625,-645.019531,671.875000,-68.359375,4.446473
1138,-800.781250,-724.609375,-792.968750,-681.640625,-501.953125,4.450379
1139,-1000.000000,-611.328125,-869.140625,-1000.000000,-992.187500,4.454285
1140,-833.007812,-689.941406,-756.835938,-222.167969,-953.125000,4.450034
1141,-142.578125,-863.281250,-654.296875,-919.433594,-658.203125,4.453940
1142,129.882812,-903.808594,-714.843750,870.605469,-406.738281,4.457847
1143,-565.917969,-751.464844,-835.449219,-425.781250,-712.890625,4.461753
1144,-1000.000000,-604.492188,-869.140625,-1000.000000,-957.031250,4.465659
1145,-892.089844,-657.714844,-759.277344,-287.597656,-936.035156,4.469565
1146,-270.507812,-833.984375,-632.324219,-997.558594,-663.574219,4.473472
1147,-50.292969,-887.207031,-619.628906,-975.585938,-141.601562,4.477378
1148,-668.945312,-750.976562,-753.906250,-172.363281,-423.828125,4.481284
1149,-1000.000000,-621.093750,-888.183594,-1000.000000,-968.261719,4.485190
1150,-886.718750,-654.785156,-831.054688,-482.421875,-991.699219,4.489097
1151,-239.746094,-825.195312,-708.984375,851.562500,-880.859375,4.493003
1152,214.843750,-912.597656,-706.054688,-871.582031,-508.789062,4.511065
1153,-418.457031,-787.597656,-813.476562,5.371094,-661.621094,4.514972
1154,-1000.000000,-628.417969,-865.234375,-1000.000000,-979.492188,4.518878
1155,-945.800781,-634.277344,-784.667969,-685.058594,-959.960938,4.522784
1156,-337.890625,-810.058594,-670.410156,642.578125,-872.558594,4.526690
1157,148.925781,-918.945312,-659.179688,-797.363281,-416.503906,4.530597
1158,-473.144531,-785.644531,-752.929688,134.277344,-342.285156,4.534503
1159,-1000.000000,-621.093750,-870.605469,-1000.000000,-839.843750,4.538409
1160,-982.910156,-613.769531,-862.304688,-891.601562,-982.421875,4.542315
1161,-423.339844,-787.597656,-745.605469,373.046875,-992.187500,4.546222
1162,70.800781,-908.691406,-637.695312,-759.277344,-425.781250,4.550128
1163,-500.000000,-805.664062,-690.429688,155.761719,-208.496094,4.554034
1164,-966.308594,-656.250000,-838.378906,-1000.000000,-854.492188,4.550880
1165,-1000.000000,-615.722656,-827.636719,-1000.000000,-995.117188,4.554787
1166,-540.039062,-757.812500,-716.796875,127.929688,-958.984375,4.558693
1167,192.382812,-900.878906,-675.781250,-748.535156,-618.652344,4.562599
1168,-201.171875,-830.078125,-773.925781,216.308594,-473.632812,4.566505
1169,-923.828125,-645.019531,-826.660156,-987.792969,-712.402344,4.570412
1170,-1000.000000,-581.542969,-782.714844,-1000.000000,-806.152344,4.574318
1171,-599.609375,-745.605469,-718.261719,-73.730469,-932.128906,4.578224
1172,54.199219,-896.484375,-643.066406,-771.972656,-516.601562,4.582130
1173,-333.984375,-822.753906,-669.433594,346.679688,-99.609375,4.586037
1174,-911.621094,-671.386719,-824.218750,-935.058594,-687.988281,4.589943
1175,-1000.000000,-599.609375,-854.492188,-1000.000000,-1000.000000,4.593849
1176,-693.847656,-726.562500,-738.281250,-168.945312,-988.281250,4.610786
1177,49.804688,-897.949219,-645.996094,-808.105469,-721.679688,4.614692
1178,-19.042969,-878.906250,-722.656250,487.792969,-466.796875,4.618598
1179,-754.882812,-705.078125,-845.703125,-852.050781,-786.132812,4.622505
1180,-1000.000000,-592.773438,-858.398438,-1000.000000,-989.257812,4.626411
1181,-816.894531,-690.429688,-735.351562,-188.476562,-890.625000,4.630317
1182,-173.828125,-861.816406,-624.023438,-862.304688,-498.535156,4.634223
1183,-182.617188,-867.187500,-643.066406,726.074219,-110.351562,4.638130
1184,-800.292969,-713.378906,-782.226562,-622.070312,-528.808594,4.642036
1185,-1000.000000,-593.750000,-847.167969,-1000.000000,-942.871094,4.645942
1186,-806.640625,-680.664062,-761.230469,-242.187500,-991.210938,4.649848
1187,-110.839844,-859.863281,-668.945312,-929.687500,-809.082031,4.653755
1188,112.304688,-902.343750,-702.636719,877.929688,-479.980469,4.651231
1189,-574.218750,-752.441406,-826.660156,-416.992188,-772.949219,4.655137
1190,-1000.000000,-604.492188,-870.117188,-1000.000000,-977.539062,4.659044
1191,-859.863281,-664.062500,-794.921875,-342.285156,-991.699219,4.662950
1192,-200.683594,-838.867188,-687.988281,969.726562,-849.121094,4.666856
1193,72.753906,-898.925781,-687.500000,-956.542969,-431.152344,4.670762
1194,-599.121094,-745.117188,-767.089844,-142.578125,-523.925781,4.674669
1195,-1000.000000,-594.238281,-827.636719,-1000.000000,-880.371094,4.678575
1196,-917.480469,-642.578125,-784.179688,-513.183594,-982.421875,4.682481
1197,-256.347656,-827.636719,-696.289062,816.406250,-925.292969,4.686387
1198,5.859375,-892.578125,-633.300781,-844.238281,-332.031250,4.690294
1199,-683.593750,-750.488281,-717.773438,64.941406,-298.828125,4.694200
1200,-997.070312,-609.375000,-855.957031,-1000.000000,-849.121094,4.691018
1201,-948.730469,-617.675781,-803.710938,-732.910156,-924.804688,4.694924
1202,-384.277344,-802.734375,-701.171875,594.238281,-914.550781,4.698830
1203,194.335938,-928.222656,-688.476562,-792.968750,-631.835938,4.702736
1204,-382.324219,-809.082031,-785.644531,112.792969,-651.855469,4.706643
1205,-992.675781,-622.558594,-835.449219,-1000.000000,-894.531250,4.710549
1206,-1000.000000,-590.332031,-780.273438,-909.179688,-896.484375,4.714455
1207,-455.566406,-769.531250,-709.960938,333.007812,-957.519531,4.718361
1208,56.152344,-899.414062,-645.019531,-753.906250,-479.492188,4.722268
1209,-559.082031,-789.062500,-682.128906,171.875000,-141.601562,4.726174
1210,-987.304688,-648.437500,-840.820312,-1000.000000,-768.554688,4.730080
1211,-1000.000000,-621.093750,-846.679688,-1000.000000,-1000.000000,4.733986
1212,-590.332031,-767.089844,-724.121094,84.472656,-951.660156,4.750866
1213,133.789062,-916.992188,-666.992188,-751.464844,-637.207031,4.754773
1214,-231.445312,-845.703125,-764.160156,225.585938,-530.761719,4.758679
1215,-919.921875,-653.808594,-843.261719,-989.746094,-827.148438,4.762585
1216,-1000.000000,-582.031250,-806.640625,-1000.000000,-920.410156,4.766491
1217,-726.074219,-725.097656,-695.312500,-61.523438,-881.835938,4.770398
1218,-87.402344,-881.835938,-599.121094,-771.972656,-400.878906,4.774304
1219,-382.812500,-835.449219,-647.460938,364.257812,-104.003906,4.778210
1220,-937.011719,-680.664062,-809.082031,-923.828125,-696.777344,4.782116
1221,-1000.000000,-602.539062,-856.445312,-1000.000000,-998.046875,4.786023
1222,-729.980469,-723.144531,-754.394531,-183.593750,-993.652344,4.789929
1223,5.371094,-891.601562,-669.433594,-813.476562,-758.300781,4.793835
1224,-59.082031,-874.511719,-735.839844,498.046875,-481.445312,4.790892
1225,-774.414062,-701.171875,-849.609375,-844.238281,-800.781250,4.794798
1226,-1000.000000,-592.773438,-859.863281,-1000.000000,-990.234375,4.798704
1227,-821.777344,-692.871094,-740.722656,-197.265625,-930.175781,4.802611
1228,-111.328125,-868.164062,-636.230469,-864.746094,-668.457031,4.806517
1229,-53.710938,-881.347656,-687.500000,722.656250,-359.863281,4.810423
1230,-770.019531,-706.542969,-780.273438,-622.558594,-569.824219,4.814329
1231,-1000.000000,-575.195312,-810.058594,-1000.000000,-822.265625,4.818236
1232,-829.589844,-674.316406,-760.253906,-251.953125,-961.914062,4.822142
1233,-115.234375,-867.187500,-690.917969,-957.519531,-877.441406,4.826048
1234,-97.656250,-882.812500,-642.089844,956.542969,-257.812500,4.829954
1235,-800.781250,-726.074219,-743.652344,-312.988281,-415.527344,4.833861
1236,-1000.000000,-608.886719,-875.000000,-1000.000000,-966.308594,4.836010
1237,-873.535156,-665.527344,-797.363281,-358.886719,-995.117188,4.839916
1238,-217.285156,-844.238281,-682.617188,965.332031,-881.347656,4.843822
1239,136.718750,-915.527344,-697.753906,-957.031250,-520.507812,4.847728
1240,-533.691406,-772.460938,-807.617188,-154.296875,-663.574219,4.851635
1241,-1000.000000,-599.121094,-833.496094,-1000.000000,-874.511719,4.855541
1242,-936.523438,-624.511719,-758.300781,-546.875000,-889.648438,4.859447
1243,-275.390625,-822.753906,-699.707031,780.273438,-948.242188,4.863353
1244,20.507812,-902.832031,-647.460938,-831.542969,-385.253906,4.867260
1245,-691.894531,-752.929688,-685.058594,90.332031,-211.425781,4.871166
1246,-1000.000000,-612.792969,-826.660156,-1000.000000,-804.687500,4.875072
1247,-956.054688,-634.277344,-825.195312,-761.718750,-1000.000000,4.878978
1248,-403.320312,-804.687500,-709.472656,562.500000,-923.339844,4.895886
1249,189.941406,-922.363281,-684.082031,-786.621094,-628.906250,4.899792
1250,-388.183594,-806.152344,-783.691406,120.117188,-635.253906,4.903698
1251,-987.304688,-636.230469,-870.117188,-1000.000000,-928.222656,4.907604
1252,-1000.000000,-618.164062,-834.472656,-916.992188,-987.792969,4.911511
1253,-592.285156,-770.019531,-688.964844,326.171875,-825.195312,4.915417
1254,-42.480469,-892.089844,-604.492188,-752.441406,-252.929688,4.919323
1255,-546.875000,-791.992188,-681.152344,167.968750,-141.113281,4.923229
1256,-990.234375,-642.578125,-836.425781,-1000.000000,-781.738281,4.927136
1257,-1000.000000,-612.792969,-848.144531,-1000.000000,-1000.000000,4.931042
1258,-605.468750,-759.765625,-725.585938,64.941406,-935.058594,4.934948
1259,125.000000,-914.062500,-667.480469,-752.441406,-604.492188,4.938854
1260,-280.761719,-836.914062,-739.257812,226.074219,-412.109375,4.930954
1261,-950.683594,-653.320312,-825.195312,-982.421875,-753.417969,4.934861
1262,-1000.000000,-600.585938,-835.449219,-1000.000000,-976.562500,4.938767
1263,-680.175781,-741.699219,-736.328125,-114.257812,-990.722656,4.942673
1264,41.015625,-903.808594,-656.738281,-780.273438,-666.503906,4.946579
1265,-250.488281,-850.585938,-707.031250,362.792969,-297.363281,4.950486
1266,-918.457031,-665.527344,-798.339844,-928.222656,-603.515625,4.954392
1267,-1000.000000,-587.890625,-829.101562,-1000.000000,-930.664062,4.958298
1268,-742.675781,-721.679688,-748.535156,-186.035156,-1000.000000,4.962204
1269,-9.277344,-890.625000,-660.156250,-829.589844,-787.597656,4.966111
1270,-266.113281,-852.539062,-648.437500,606.445312,-188.476562,4.970017
1271,-927.734375,-690.917969,-775.390625,-755.859375,-514.648438,4.973923
1272,-1000.000000,-602.539062,-863.281250,-1000.000000,-1000.000000,4.980986
1273,-805.175781,-702.636719,-762.207031,-206.054688,-990.234375,4.984893
1274,-69.824219,-879.394531,-672.851562,-884.765625,-803.710938,4.988799
1275,-22.949219,-890.136719,-697.265625,776.367188,-364.746094,4.992705
1276,-764.160156,-722.167969,-793.457031,-559.082031,-571.777344,4.996611
1277,-1000.000000,-585.937500,-827.148438,-1000.000000,-910.644531,5.000518
1278,-891.113281,-658.203125,-716.796875,-231.445312,-843.261719,5.004424
1279,-196.289062,-850.585938,-645.996094,-961.425781,-708.496094,5.008330
1280,-67.382812,-883.789062,-647.949219,983.398438,-268.066406,5.012236
1281,-801.757812,-720.703125,-725.097656,-245.117188,-402.832031,5.016143
1282,-1000.000000,-604.980469,-856.933594,-1000.000000,-944.335938,5.020049
1283,-882.812500,-666.992188,-807.617188,-389.648438,-1000.000000,5.023955
1284,-221.679688,-845.703125,-692.382812,943.359375,-887.695312,5.031075
1285,166.992188,-918.945312,-701.171875,-938.476562,-572.753906,5.034981
1286,-522.949219,-772.460938,-809.570312,-128.417969,-740.722656,5.038888
1287,-1000.000000,-615.234375,-880.371094,-1000.000000,-995.605469,5.042794
1288,-951.660156,-641.113281,-813.476562,-559.082031,-962.890625,5.046700
1289,-392.089844,-811.035156,-677.246094,767.578125,-843.261719,5.050606
1290,-54.199219,-893.066406,-611.328125,-825.195312,-266.113281,5.054513
1291,-694.335938,-760.742188,-691.894531,116.699219,-217.285156,5.058419
1292,-1000.000000,-627.929688,-853.027344,-1000.000000,-874.511719,5.062325
1293,-967.773438,-634.277344,-834.960938,-793.457031,-1000.000000,5.066231
1294,-437.011719,-799.804688,-711.914062,522.949219,-917.480469,5.070138
1295,179.687500,-924.804688,-687.500000,-779.785156,-586.914062,5.074044
1296,-380.371094,-811.035156,-783.691406,130.859375,-579.589844,5.070899
1297,-984.863281,-638.183594,-866.210938,-1000.000000,-924.316406,5.074805
1298,-1000.000000,-615.234375,-829.101562,-942.382812,-975.585938,5.078711
1299,-521.484375,-774.414062,-709.472656,274.414062,-975.097656,5.082618
1300,137.695312,-910.644531,-664.062500,-750.488281,-631.835938,5.086524
1301,-399.414062,-812.500000,-732.421875,184.570312,-411.621094,5.090430
1302,-986.816406,-629.882812,-803.710938,-1000.000000,-738.769531,5.094336
1303,-1000.000000,-586.425781,-799.316406,-1000.000000,-917.480469,5.098243
1304,-609.375000,-754.882812,-727.539062,26.367188,-988.281250,5.102149
1305,71.289062,-907.226562,-656.738281,-757.324219,-570.800781,5.106055
1306,-444.335938,-816.894531,-669.921875,294.921875,-115.722656,5.109961
1307,-990.722656,-658.691406,-810.546875,-957.031250,-663.574219,5.113868
1308,-1000.000000,-605.957031,-854.980469,-1000.000000,-1000.000000,5.110964
1309,-696.777344,-736.328125,-740.234375,-119.628906,-987.304688,5.114870
1310,56.640625,-900.878906,-660.156250,-784.179688,-705.078125,5.118776
1311,-140.136719,-863.769531,-733.398438,377.441406,-440.429688,5.122683
1312,-844.238281,-689.941406,-853.515625,-923.828125,-820.800781,5.126589
1313,-1000.000000,-580.566406,-815.429688,-1000.000000,-947.753906,5.130495
1314,-779.296875,-701.171875,-696.289062,-172.851562,-878.417969,5.134401
1315,-10.253906,-892.089844,-662.597656,-838.867188,-751.464844,5.138308
1316,-227.050781,-855.468750,-657.714844,657.714844,-214.355469,5.142214
1317,-941.406250,-686.035156,-767.578125,-701.171875,-473.632812,5.146120
1318,-1000.000000,-597.656250,-874.511719,-1000.000000,-1000.000000,5.150026
1319,-811.035156,-694.335938,-774.902344,-208.984375,-987.792969,5.153933
1320,-78.613281,-875.000000,-674.316406,-881.835938,-771.484375,5.170779
1321,42.480469,-898.437500,-716.308594,756.347656,-440.917969,5.174685
1322,-693.847656,-733.886719,-821.777344,-579.101562,-700.195312,5.178591
1323,-1000.000000,-600.585938,-859.863281,-1000.000000,-978.515625,5.182498
1324,-871.093750,-670.410156,-764.648438,-272.949219,-974.609375,5.186404
1325,-255.371094,-841.308594,-641.601562,-991.699219,-704.101562,5.190310
1326,-154.785156,-870.605469,-611.328125,-980.957031,-123.535156,5.194216
1327,-821.289062,-720.214844,-720.703125,-189.453125,-349.609375,5.198123
1328,-1000.000000,-602.539062,-863.769531,-1000.000000,-954.101562,5.202029
1329,-901.367188,-655.273438,-800.292969,-407.714844,-990.234375,5.205935
1330,-255.859375,-836.914062,-687.988281,929.687500,-908.691406,5.209841
1331,153.320312,-916.992188,-700.683594,-924.804688,-545.898438,5.213748
1332,-535.644531,-770.996094,-801.757812,-104.492188,-628.417969,5.210988
1333,-1000.000000,-615.234375,-869.628906,-1000.000000,-963.867188,5.214894
1334,-939.453125,-644.042969,-812.500000,-596.191406,-1000.000000,5.218800
1335,-428.710938,-804.199219,-667.480469,732.421875,-809.570312,5.222707
1336,34.179688,-905.273438,-644.531250,-820.312500,-370.605469,5.226613
1337,-527.343750,-778.320312,-751.953125,101.562500,-431.640625,5.230519
1338,-1000.000000,-599.609375,-807.617188,-1000.000000,-737.792969,5.234425
1339,-993.652344,-606.445312,-774.902344,-807.128906,-848.632812,5.238332
1340,-432.128906,-798.339844,-705.566406,493.164062,-917.480469,5.242238
1341,80.078125,-910.156250,-650.390625,-770.996094,-458.984375,5.246144
1342,-592.285156,-775.878906,-688.476562,167.480469,-209.960938,5.250050
1343,-1000.000000,-630.371094,-838.378906,-1000.000000,-794.921875,5.253957
1344,-999.023438,-613.281250,-845.214844,-969.726562,-1000.000000,5.250854
1345,-559.082031,-767.089844,-719.726562,235.351562,-957.031250,5.254760
1346,143.554688,-914.062500,-669.921875,-750.000000,-583.007812,5.258667
1347,-318.847656,-829.101562,-758.300781,180.175781,-424.804688,5.262573
1348,-949.707031,-657.226562,-855.468750,-1000.000000,-860.839844,5.266479
1349,-1000.000000,-589.843750,-795.898438,-1000.000000,-908.691406,5.270385
1350,-670.898438,-736.328125,-680.664062,37.597656,-831.054688,5.274292
1351,15.136719,-896.972656,-643.554688,-754.882812,-504.394531,5.278198
1352,-445.312500,-813.964844,-670.410156,313.964844,-94.726562,5.282104
1353,-997.558594,-656.738281,-805.664062,-943.847656,-604.003906,5.286010
1354,-1000.000000,-602.050781,-858.886719,-1000.000000,-1000.000000,5.289917
1355,-722.167969,-734.375000,-741.210938,-136.718750,-978.515625,5.293823
1356,54.687500,-903.320312,-665.527344,-790.039062,-681.640625,5.310826
1357,-118.652344,-868.652344,-736.328125,399.414062,-397.949219,5.314732
1358,-842.285156,-693.847656,-851.074219,-910.644531,-760.742188,5.318639
1359,-1000.000000,-593.750000,-853.515625,-1000.000000,-978.515625,5.322545
1360,-772.949219,-708.984375,-743.652344,-188.964844,-997.070312,5.326451
1361,-62.988281,-880.371094,-648.437500,-852.539062,-697.265625,5.330357
1362,-285.644531,-853.515625,-629.394531,694.824219,-49.804688,5.334264
1363,-962.402344,-691.894531,-749.511719,-658.691406,-399.414062,5.338170
1364,-1000.000000,-603.027344,-858.886719,-1000.000000,-992.675781,5.342076
1365,-823.242188,-693.359375,-762.207031,-215.820312,-1000.000000,5.345982
1366,-171.875000,-862.304688,-645.996094,-891.601562,-691.406250,5.349889
1367,-11.718750,-895.019531,-700.683594,785.156250,-372.558594,5.353795
1368,-682.617188,-738.769531,-836.425781,-542.480469,-741.699219,5.350976
1369,-1000.000000,-601.074219,-875.000000,-1000.000000,-987.792969,5.354883
1370,-875.976562,-673.828125,-781.250000,-289.550781,-979.980469,5.358789
1371,-179.199219,-857.910156,-683.593750,-982.910156,-889.160156,5.362695
1372,103.515625,-911.621094,-711.425781,977.539062,-549.316406,5.366601
1373,-646.972656,-744.628906,-782.714844,-257.812500,-572.753906,5.370508
1374,-1000.000000,-588.378906,-818.847656,-1000.000000,-829.101562,5.374414
1375,-930.175781,-638.183594,-757.812500,-435.546875,-893.066406,5.378320
1376,-243.164062,-836.914062,-695.800781,873.046875,-870.605469,5.382226
1377,43.945312,-904.785156,-660.644531,-868.164062,-363.769531,5.386133
1378,-740.722656,-745.605469,-704.101562,43.457031,-270.019531,5.390039
1379,-1000.000000,-615.234375,-854.003906,-1000.000000,-888.183594,5.393945
1380,-952.636719,-639.160156,-821.289062,-662.109375,-1000.000000,5.395701
1381,-433.593750,-803.222656,-677.734375,679.199219,-827.148438,5.399607
1382,137.207031,-916.015625,-674.316406,-816.406250,-488.769531,5.403513
1383,-453.125000,-795.898438,-792.480469,66.406250,-572.265625,5.407419
1384,-997.070312,-628.906250,-868.652344,-1000.000000,-932.617188,5.411326
1385,-1000.000000,-608.886719,-790.039062,-871.093750,-937.500000,5.415232
1386,-518.554688,-772.460938,-666.503906,384.277344,-831.542969,5.419138
1387,52.246094,-907.714844,-643.554688,-758.789062,-437.500000,5.423044
1388,-561.035156,-786.621094,-692.871094,164.062500,-206.054688,5.426951
1389,-1000.000000,-625.488281,-810.058594,-1000.000000,-736.816406,5.430857
1390,-1000.000000,-609.375000,-824.707031,-1000.000000,-1000.000000,5.434763
1391,-573.242188,-771.484375,-721.679688,130.859375,-964.843750,5.438669
1392,148.925781,-916.992188,-675.292969,-748.046875,-633.789062,5.450810
1393,-308.105469,-830.566406,-763.183594,185.058594,-487.792969,5.454717
1394,-946.289062,-657.714844,-865.722656,-1000.000000,-871.093750,5.458623
1395,-1000.000000,-603.515625,-844.726562,-1000.000000,-992.187500,5.462529
1396,-722.167969,-739.746094,-705.566406,-14.160156,-885.253906,5.466435
1397,-30.761719,-895.996094,-630.371094,-762.207031,-497.558594,5.470342
1398,-434.082031,-825.195312,-659.667969,336.425781,-97.167969,5.474248
1399,-1000.000000,-659.667969,-785.156250,-935.058594,-572.265625,5.478154
1400,-1000.000000,-602.539062,-850.097656,-1000.000000,-1000.000000,5.482060
1401,-737.792969,-728.515625,-735.839844,-155.761719,-987.304688,5.485967
1402,52.246094,-903.320312,-669.433594,-795.898438,-770.507812,5.489873
1403,-110.839844,-872.558594,-737.792969,412.597656,-453.125000,5.493779
1404,-845.214844,-693.847656,-846.679688,-902.832031,-767.089844,5.490910
1405,-1000.000000,-592.773438,-855.957031,-1000.000000,-993.652344,5.494816
1406,-791.503906,-700.683594,-751.953125,-202.148438,-980.468750,5.498722
1407,-18.066406,-885.253906,-681.152344,-839.355469,-832.031250,5.502628
1408,-31.250000,-890.136719,-731.445312,611.328125,-504.394531,5.506535
1409,-812.500000,-706.542969,-798.828125,-741.210938,-630.859375,5.510441
1410,-1000.000000,-581.542969,-800.292969,-1000.000000,-906.250000,5.514347
1411,-888.183594,-670.410156,-696.289062,-205.566406,-881.835938,5.518253
1412,-148.925781,-867.187500,-648.437500,-926.757812,-739.257812,5.522160
1413,-86.425781,-883.789062,-661.132812,912.109375,-227.539062,5.526066
1414,-891.601562,-703.613281,-729.003906,-356.933594,-346.191406,5.529972
1415,-1000.000000,-597.656250,-861.816406,-1000.000000,-971.191406,5.533878
1416,-883.300781,-666.992188,-793.457031,-322.265625,-998.046875,5.530791
1417,-196.777344,-851.562500,-690.429688,-994.140625,-883.789062,5.534697
1418,144.531250,-913.574219,-716.308594,984.863281,-536.621094,5.538603
1419,-600.097656,-756.835938,-812.011719,-262.695312,-636.230469,5.542509
1420,-1000.000000,-607.910156,-872.070312,-1000.000000,-968.750000,5.546416
1421,-959.960938,-636.718750,-761.718750,-433.105469,-895.996094,5.550322
1422,-371.582031,-817.382812,-643.554688,873.046875,-675.292969,5.554228
1423,-1.953125,-897.949219,-642.089844,-863.769531,-258.300781,5.558134
1424,-712.890625,-744.628906,-702.148438,65.429688,-249.023438,5.562041
1425,-1000.000000,-609.375000,-846.679688,-1000.000000,-854.492188,5.565947
1426,-964.355469,-626.953125,-805.175781,-672.363281,-987.304688,5.569853
1427,-397.460938,-803.222656,-683.593750,673.828125,-832.519531,5.573759
1428,187.011719,-923.339844,-688.964844,-810.546875,-473.632812,5.590791
1429,-442.871094,-800.781250,-781.250000,86.425781,-562.988281,5.594698
1430,-995.605469,-634.765625,-872.070312,-1000.000000,-961.425781,5.598604
1431,-1000.000000,-620.117188,-830.078125,-867.187500,-965.820312,5.602510
1432,-482.910156,-782.714844,-718.261719,396.972656,-977.050781,5.606416
1433,66.406250,-901.855469,-651.855469,-759.277344,-533.203125,5.610323
1434,-563.476562,-780.273438,-675.292969,174.316406,-145.996094,5.614229
1435,-999.511719,-629.394531,-811.035156,-1000.000000,-705.566406,5.618135
1436,-1000.000000,-616.210938,-836.425781,-1000.000000,-1000.000000,5.622041
1437,-594.726562,-769.042969,-718.261719,146.972656,-962.402344,5.625948
1438,149.902344,-917.968750,-674.804688,-749.511719,-676.757812,5.629854
1439,-291.992188,-833.984375,-760.742188,194.824219,-524.414062,5.633760
1440,-942.382812,-660.156250,-869.140625,-997.070312,-889.160156,5.631069
1441,-1000.000000,-595.703125,-828.613281,-1000.000000,-981.445312,5.634975
1442,-664.550781,-738.769531,-708.984375,-56.640625,-991.210938,5.638881
1443,74.707031,-907.714844,-657.714844,-767.578125,-684.082031,5.642788
1444,-237.792969,-853.515625,-729.980469,301.757812,-418.457031,5.646694
1445,-910.644531,-668.457031,-818.847656,-958.007812,-742.187500,5.650600
1446,-1000.000000,-576.171875,-791.015625,-1000.000000,-886.230469,5.654506
1447,-763.671875,-710.937500,-693.359375,-143.554688,-860.839844,5.658413
1448,69.824219,-908.203125,-683.105469,-815.429688,-796.386719,5.662319
1449,-229.980469,-861.816406,-682.617188,571.777344,-278.320312,5.666225
1450,-992.187500,-679.687500,-754.882812,-775.878906,-459.472656,5.670131
1451,-1000.000000,-606.933594,-859.863281,-1000.000000,-1000.000000,5.674038
1452,-793.945312,-713.378906,-757.324219,-191.894531,-988.769531,5.675195
1453,-0.488281,-894.042969,-683.105469,-850.585938,-836.914062,5.679101
1454,37.109375,-897.949219,-739.746094,660.156250,-538.085938,5.683008
1455,-752.929688,-726.074219,-842.773438,-691.894531,-746.582031,5.686914
1456,-1000.000000,-596.679688,-856.933594,-1000.000000,-984.863281,5.690820
1457,-883.300781,-668.945312,-720.703125,-208.496094,-913.085938,5.694726
1458,-208.496094,-858.886719,-638.671875,-943.847656,-673.828125,5.698633
1459,-123.046875,-883.789062,-645.507812,954.101562,-144.531250,5.702539
1460,-858.398438,-715.332031,-729.492188,-285.156250,-295.410156,5.706445
1461,-1000.000000,-606.933594,-861.328125,-1000.000000,-919.921875,5.710351
1462,-880.859375,-675.292969,-795.898438,-331.054688,-999.511719,5.714258
1463,-179.687500,-858.398438,-690.429688,992.675781,-888.183594,5.718164
1464,178.222656,-923.339844,-713.867188,-985.351562,-551.757812,5.735492
1465,-575.195312,-766.113281,-808.105469,-205.566406,-636.718750,5.739398
1466,-1000.000000,-614.746094,-875.976562,-1000.000000,-960.937500,5.743304
1467,-939.941406,-651.855469,-808.105469,-482.910156,-982.421875,5.747210
1468,-285.644531,-832.519531,-704.589844,833.984375,-917.968750,5.751117
1469,39.550781,-904.785156,-652.832031,-847.167969,-314.941406,5.755023
1470,-687.500000,-761.230469,-721.191406,82.031250,-256.347656,5.758929
1471,-1000.000000,-615.234375,-839.355469,-1000.000000,-845.703125,5.762835
1472,-973.632812,-623.535156,-785.644531,-704.589844,-934.082031,5.766742
1473,-388.183594,-811.035156,-703.125000,633.789062,-925.781250,5.770648
1474,145.507812,-918.945312,-674.316406,-798.339844,-494.628906,5.774554
1475,-528.808594,-785.156250,-737.792969,118.164062,-348.632812,5.778460
1476,-994.628906,-631.835938,-854.003906,-1000.000000,-845.703125,5.776035
1477,-1000.000000,-622.558594,-826.171875,-891.601562,-994.628906,5.779941
1478,-505.859375,-786.132812,-710.937500,369.140625,-929.687500,5.783847
1479,171.386719,-919.433594,-677.246094,-758.300781,-558.105469,5.787754
1480,-375.488281,-815.429688,-763.671875,156.250000,-394.042969,5.791660
1481,-974.609375,-628.906250,-826.171875,-1000.000000,-706.054688,5.795566
1482,-1000.000000,-580.566406,-772.460938,-1000.000000,-786.621094,5.799472
1483,-591.796875,-754.882812,-693.359375,118.652344,-820.312500,5.803379
1484,161.621094,-920.410156,-676.269531,-749.511719,-578.125000,5.807285
1485,-397.949219,-817.871094,-683.593750,269.042969,-140.136719,5.811191
1486,-1000.000000,-636.230469,-763.671875,-965.332031,-500.000000,5.815097
1487,-1000.000000,-591.796875,-814.453125,-1000.000000,-937.988281,5.819004
1488,-680.664062,-739.257812,-728.027344,-77.636719,-981.933594,5.810539
1489,135.742188,-912.109375,-683.105469,-773.925781,-763.183594,5.814445
1490,-138.183594,-862.304688,-751.464844,333.496094,-486.816406,5.818352
1491,-885.253906,-685.058594,-851.074219,-943.847656,-770.019531,5.822258
1492,-1000.000000,-604.492188,-858.886719,-1000.000000,-1000.000000,5.826164
1493,-823.730469,-709.472656,-701.660156,-151.367188,-800.292969,5.830070
1494,-30.273438,-887.207031,-649.414062,-824.707031,-546.875000,5.833977
1495,-198.242188,-856.933594,-682.617188,608.398438,-228.515625,5.837883
1496,-972.656250,-671.875000,-750.488281,-742.187500,-419.433594,5.841789
1497,-1000.000000,-595.214844,-848.632812,-1000.000000,-959.960938,5.845695
1498,-797.363281,-706.054688,-751.953125,-197.753906,-994.628906,5.849602
1499,-1.953125,-892.089844,-682.128906,-861.816406,-810.058594,5.853508
1500,76.660156,-906.250000,-743.652344,699.218750,-532.714844,5.875896
1501,-723.144531,-721.679688,-816.894531,-648.437500,-668.457031,5.879803
1502,-1000.000000,-585.937500,-835.449219,-1000.000000,-875.000000,5.883709
1503,-846.679688,-682.128906,-769.042969,-233.886719,-976.074219,5.887615
1504,-70.312500,-877.929688,-699.707031,-962.402344,-914.062500,5.891521
1505,-30.761719,-895.019531,-667.968750,980.468750,-281.250000,5.895428
1506,-851.562500,-720.703125,-724.609375,-245.117188,-296.386719,5.899334
1507,-1000.000000,-604.980469,-861.328125,-1000.000000,-937.988281,5.903240
1508,-891.113281,-664.550781,-796.875000,-353.515625,-994.628906,5.907146
1509,-204.589844,-846.679688,-690.429688,974.609375,-916.015625,5.911053
1510,143.066406,-911.621094,-701.171875,-960.937500,-530.273438,5.914959
1511,-600.097656,-758.789062,-791.503906,-162.597656,-579.101562,5.918865
1512,-1000.000000,-613.281250,-872.558594,-1000.000000,-961.425781,5.915951
1513,-940.917969,-644.531250,-806.640625,-523.925781,-986.328125,5.919858
1514,-314.453125,-820.312500,-692.871094,813.964844,-899.414062,5.923764
1515,158.691406,-916.503906,-688.476562,-855.957031,-521.484375,5.927670
1516,-530.273438,-770.996094,-759.765625,26.367188,-427.246094,5.931576
1517,-1000.000000,-594.726562,-812.500000,-1000.000000,-718.261719,5.935483
1518,-997.070312,-596.679688,-752.929688,-719.238281,-811.035156,5.939389
1519,-462.402344,-781.738281,-662.597656,597.656250,-744.628906,5.943295
1520,131.347656,-912.109375,-670.410156,-786.621094,-472.656250,5.947201
1521,-546.875000,-769.042969,-691.894531,162.597656,-227.539062,5.951108
1522,-1000.000000,-615.234375,-812.500000,-1000.000000,-708.007812,5.955014
1523,-995.117188,-622.070312,-844.726562,-924.316406,-1000.000000,5.958920
1524,-520.507812,-783.691406,-717.773438,323.242188,-970.703125,5.954700
1525,185.058594,-923.828125,-680.664062,-755.859375,-664.550781,5.958606
1526,-351.074219,-819.824219,-758.300781,162.109375,-484.375000,5.962512
1527,-969.238281,-645.996094,-858.886719,-1000.000000,-864.746094,5.966419
1528,-1000.000000,-603.515625,-840.332031,-1000.000000,-1000.000000,5.970325
1529,-701.660156,-741.210938,-686.035156,115.234375,-806.640625,5.974231
1530,19.042969,-899.902344,-638.671875,-749.511719,-449.218750,5.978137
1531,-406.250000,-809.082031,-671.386719,259.765625,-120.605469,5.982044
1532,-1000.000000,-635.253906,-763.671875,-965.332031,-521.972656,5.985950
1533,-1000.000000,-607.421875,-848.632812,-1000.000000,-1000.000000,5.989856
1534,-694.335938,-743.652344,-739.257812,-100.097656,-974.609375,5.993762
1535,131.347656,-912.597656,-680.664062,-776.855469,-717.285156,5.997669
1536,-105.957031,-861.328125,-749.511719,320.312500,-431.152344,6.015887
1537,-871.582031,-681.152344,-845.214844,-947.753906,-759.277344,6.019793
1538,-1000.000000,-600.585938,-853.515625,-1000.000000,-993.652344,6.023699
1539,-758.300781,-719.238281,-734.863281,-186.035156,-977.050781,6.027605
1540,55.175781,-900.390625,-671.875000,-816.894531,-814.941406,6.031512
1541,-85.937500,-875.000000,-708.496094,507.812500,-381.347656,6.035418
1542,-876.464844,-688.476562,-791.015625,-824.218750,-570.800781,6.039324
1543,-1000.000000,-591.796875,-854.003906,-1000.000000,-976.074219,6.043230
1544,-812.500000,-696.777344,-755.371094,-198.242188,-977.539062,6.047137
1545,4.882812,-888.183594,-691.406250,-895.507812,-871.582031,6.051043
1546,-51.269531,-885.742188,-685.058594,816.894531,-327.636719,6.054949
1547,-899.902344,-697.265625,-728.515625,-485.839844,-337.890625,6.058855
1548,-1000.000000,-598.144531,-850.585938,-1000.000000,-923.339844,6.055824
1549,-850.097656,-682.128906,-778.808594,-262.207031,-1000.000000,6.059731
1550,-128.417969,-863.281250,-679.687500,-942.871094,-874.511719,6.063637
1551,120.605469,-905.273438,-709.960938,899.902344,-521.972656,6.067543
1552,-647.460938,-740.234375,-800.292969,-380.859375,-611.816406,6.071449
1553,-1000.000000,-590.332031,-838.867188,-1000.000000,-903.320312,6.075356
1554,-942.871094,-637.695312,-732.910156,-338.867188,-833.496094,6.079262
1555,-233.398438,-841.308594,-671.875000,960.449219,-815.429688,6.083168
1556,102.050781,-910.644531,-687.500000,-937.500000,-465.332031,6.087074
1557,-711.914062,-735.351562,-710.449219,-67.382812,-275.390625,6.090981
1558,-1000.000000,-604.980469,-837.402344,-1000.000000,-822.753906,6.094887
1559,-937.500000,-646.484375,-822.753906,-571.777344,-1000.000000,6.098793
1560,-324.218750,-821.777344,-701.171875,787.597656,-916.503906,6.115902
1561,175.292969,-920.410156,-690.917969,-864.257812,-502.441406,6.119808
1562,-530.761719,-775.878906,-759.765625,14.648438,-352.050781,6.123714
1563,-1000.000000,-621.582031,-857.421875,-1000.000000,-813.964844,6.127621
1564,-983.398438,-625.488281,-824.218750,-762.695312,-998.046875,6.131527
1565,-514.648438,-781.738281,-674.316406,545.410156,-807.617188,6.135433
1566,53.710938,-906.250000,-643.554688,-777.343750,-382.324219,6.139339
1567,-535.644531,-775.878906,-682.617188,168.457031,-173.828125,6.143246
1568,-1000.000000,-615.234375,-797.851562,-1000.000000,-669.433594,6.147152
1569,-994.628906,-618.164062,-843.261719,-949.707031,-1000.000000,6.151058
1570,-520.019531,-777.343750,-720.703125,273.437500,-930.664062,6.154964
1571,210.449219,-920.898438,-682.617188,-751.953125,-629.394531,6.158871
1572,-300.292969,-824.218750,-761.718750,174.316406,-471.191406,6.155914
1573,-961.425781,-652.343750,-859.375000,-1000.000000,-833.007812,6.159820
1574,-1000.000000,-609.375000,-848.632812,-1000.000000,-991.210938,6.163726
1575,-614.257812,-756.835938,-725.097656,46.386719,-963.867188,6.167633
1576,179.199219,-916.992188,-684.570312,-754.882812,-714.843750,6.171539
1577,-238.769531,-842.773438,-742.187500,276.367188,-397.949219,6.175445
1578,-958.984375,-650.390625,-797.363281,-962.890625,-574.707031,6.179351
1579,-1000.000000,-580.078125,-795.410156,-1000.000000,-785.156250,6.183258
1580,-699.707031,-727.539062,-703.125000,-120.605469,-847.167969,6.187164
1581,149.902344,-913.085938,-688.964844,-796.386719,-743.652344,6.191070
1582,-201.171875,-848.144531,-693.359375,488.281250,-255.859375,6.194976
1583,-987.792969,-655.273438,-745.605469,-846.679688,-413.574219,6.198883
1584,-1000.000000,-595.703125,-852.050781,-1000.000000,-969.726562,6.195850
1585,-754.394531,-716.308594,-756.835938,-182.617188,-995.117188,6.199757
1586,62.500000,-894.042969,-681.152344,-830.078125,-821.289062,6.203663
1587,43.457031,-889.160156,-745.117188,578.613281,-509.765625,6.207569
1588,-768.066406,-710.449219,-836.425781,-774.902344,-678.222656,6.211475
1589,-1000.000000,-583.496094,-831.542969,-1000.000000,-907.714844,6.215382
1590,-853.027344,-674.316406,-702.148438,-189.941406,-846.679688,6.219288
1591,-43.457031,-878.417969,-669.921875,-913.574219,-786.621094,6.223194
1592,-4.882812,-888.671875,-683.593750,888.183594,-337.402344,6.227100
1593,-857.421875,-701.171875,-723.632812,-393.066406,-328.125000,6.231007
1594,-1000.000000,-599.121094,-855.468750,-1000.000000,-919.433594,6.234913
1595,-836.425781,-684.082031,-793.457031,-273.925781,-1000.000000,6.238819
1596,-107.421875,-867.187500,-689.453125,-965.820312,-860.351562,6.255862
1597,175.292969,-917.968750,-715.820312,960.449219,-506.347656,6.259768
1598,-597.656250,-754.882812,-804.199219,-291.015625,-636.718750,6.263674
1599,-1000.000000,-609.863281,-873.535156,-1000.000000,-980.957031,6.267581
1600,-901.855469,-658.691406,-794.433594,-391.113281,-976.562500,6.271487
1601,-303.710938,-827.636719,-656.738281,906.250000,-759.765625,6.275393
1602,48.339844,-898.925781,-648.437500,-876.464844,-297.851562,6.279299
1603,-644.531250,-743.652344,-701.171875,49.804688,-213.378906,6.283206
1604,-1000.000000,-606.445312,-824.707031,-1000.000000,-775.390625,6.287112
1605,-949.218750,-644.042969,-805.664062,-579.589844,-997.558594,6.291018
1606,-337.890625,-818.359375,-679.687500,770.996094,-849.609375,6.294924
1607,181.152344,-918.457031,-675.781250,-831.542969,-466.796875,6.298831
1608,-472.167969,-785.644531,-771.972656,82.519531,-500.000000,6.296579
1609,-999.023438,-630.371094,-874.023438,-1000.000000,-946.289062,6.300485
1610,-975.585938,-629.882812,-830.078125,-806.640625,-984.863281,6.304391
1611,-406.738281,-798.339844,-708.007812,491.699219,-925.292969,6.308297
1612,244.628906,-926.757812,-688.476562,-772.460938,-583.984375,6.312204
1613,-384.277344,-804.687500,-751.953125,151.855469,-364.257812,6.316110
1614,-1000.000000,-623.046875,-811.523438,-1000.000000,-663.085938,6.320016
1615,-995.605469,-604.003906,-804.687500,-963.867188,-904.296875,6.323922
1616,-500.976562,-773.437500,-715.332031,233.886719,-966.796875,6.327829
1617,262.695312,-927.734375,-705.566406,-749.023438,-762.207031,6.331735
1618,-324.707031,-809.570312,-705.078125,228.515625,-283.203125,6.335641
1619,-1000.000000,-628.417969,-770.019531,-988.769531,-535.644531,6.339547
1620,-1000.000000,-613.281250,-848.144531,-1000.000000,-1000.000000,6.336272
1621,-573.242188,-756.835938,-734.375000,12.695312,-985.839844,6.340178
1622,188.476562,-907.226562,-663.574219,-760.253906,-608.398438,6.344084
1623,-134.765625,-847.656250,-742.187500,287.597656,-409.179688,6.347990
1624,-861.816406,-675.781250,-854.492188,-963.867188,-820.800781,6.351897
1625,-1000.000000,-587.402344,-825.195312,-1000.000000,-923.339844,6.355803
1626,-732.910156,-712.402344,-682.617188,-98.632812,-778.808594,6.359709
1627,182.128906,-910.644531,-685.546875,-801.757812,-708.984375,6.363615
1628,-35.156250,-863.769531,-719.726562,540.527344,-329.589844,6.367522
1629,-928.222656,-662.597656,-753.906250,-798.828125,-408.691406,6.371428
1630,-1000.000000,-600.097656,-858.886719,-1000.000000,-974.121094,6.375334
1631,-700.683594,-720.703125,-767.578125,-178.710938,-997.070312,6.379240
1632,327.148438,-896.484375,-694.824219,-844.726562,-777.832031,6.395914
1633,364.746094,-893.066406,-754.394531,652.343750,-460.937500,6.399820
1634,-645.019531,-716.796875,-846.679688,-702.148438,-678.222656,6.403726
1635,-1000.000000,-601.074219,-881.835938,-1000.000000,-978.027344,6.407633
1636,-820.312500,-694.824219,-771.972656,-191.894531,-980.468750,6.411539
1637,364.257812,-869.140625,-671.875000,-932.128906,-751.953125,6.415445
