,TP9,AF7,AF8,TP10,Right AUX,timestamps
0,-431.152344,-795.898438,-805.175781,53.222656,-573.730469,0.000000
1,-1000.000000,-625.488281,-873.046875,-1000.000000,-912.109375,0.003906
2,-984.863281,-630.859375,-820.800781,-738.769531,-1000.000000,0.007812
3,-511.718750,-789.550781,-675.781250,579.589844,-800.292969,0.011719
4,78.125000,-908.691406,-650.390625,-786.132812,-403.320312,0.015625
5,-465.332031,-794.433594,-756.835938,141.113281,-417.480469,0.019531
6,-1000.000000,-607.910156,-807.128906,-1000.000000,-689.941406,0.023438
7,-981.933594,-604.492188,-818.359375,-936.523438,-977.539062,0.027344
8,-685.546875,-759.277344,-679.687500,293.945312,-808.105469,0.031250
9,-142.089844,-881.347656,-583.496094,-753.417969,-225.097656,0.035156
10,-421.875000,-819.335938,-754.882812,156.250000,-433.105469,0.039062
11,-959.472656,-653.808594,-876.464844,-1000.000000,-901.855469,0.042969
12,-1000.000000,-608.886719,-848.144531,-1000.000000,-995.605469,0.060762
13,-732.910156,-747.070312,-697.265625,50.781250,-875.976562,0.064668
14,12.207031,-904.296875,-644.042969,-752.929688,-608.886719,0.068574
15,-230.468750,-853.027344,-777.832031,226.074219,-590.820312,0.072480
16,-949.218750,-661.621094,-854.003906,-986.816406,-834.960938,0.076387
17,-1000.000000,-581.054688,-808.593750,-1000.000000,-950.683594,0.080293
18,-811.523438,-706.542969,-662.597656,-97.167969,-800.292969,0.084199
19,-290.039062,-863.769531,-555.664062,-774.902344,-252.441406,0.088105
20,-362.792969,-852.050781,-694.335938,330.078125,-235.839844,0.092012
21,-891.601562,-690.917969,-858.886719,-942.382812,-831.054688,0.095918
22,-1000.000000,-599.609375,-854.980469,-1000.000000,-984.375000,0.099824
23,-833.496094,-711.914062,-729.492188,-195.800781,-968.261719,0.103730
24,-132.324219,-883.300781,-642.089844,-812.988281,-705.566406,0.100427
25,-124.511719,-888.183594,-749.511719,487.304688,-529.296875,0.104333
26,-857.421875,-709.472656,-848.632812,-852.050781,-809.082031,0.108239
27,-1000.000000,-598.144531,-853.027344,-1000.000000,-979.003906,0.112145
28,-885.742188,-694.824219,-744.628906,-223.632812,-996.582031,0.116052
29,-295.410156,-862.792969,-622.070312,-869.140625,-694.824219,0.119958
30,-240.234375,-880.859375,-678.222656,711.914062,-339.355469,0.123864
31,-872.558594,-715.820312,-811.035156,-639.648438,-692.871094,0.127770
32,-1000.000000,-590.820312,-854.492188,-1000.000000,-976.562500,0.131677
33,-902.343750,-675.292969,-773.925781,-278.808594,-1000.000000,0.135583
34,-482.910156,-829.101562,-587.890625,-945.312500,-555.664062,0.139489
35,-347.167969,-876.464844,-601.074219,883.300781,-126.464844,0.143395
36,-791.992188,-750.000000,-802.246094,-416.992188,-697.753906,0.140001
37,-987.792969,-601.562500,-857.910156,-1000.000000,-986.328125,0.143908
38,-982.910156,-651.855469,-778.320312,-393.554688,-982.910156,0.147814
39,-446.289062,-827.636719,-654.785156,933.105469,-807.128906,0.151720
40,-62.988281,-917.480469,-694.824219,-936.035156,-525.878906,0.155626
41,-728.027344,-761.230469,-774.902344,-123.046875,-547.851562,0.159533
42,-1000.000000,-592.285156,-808.105469,-1000.000000,-793.945312,0.163439
43,-966.796875,-641.113281,-799.804688,-577.148438,-1000.000000,0.167345
44,-626.953125,-796.386719,-632.324219,766.113281,-723.144531,0.171251
45,-250.000000,-888.183594,-593.750000,-847.167969,-190.429688,0.175158
46,-669.433594,-787.597656,-781.738281,9.277344,-595.703125,0.179064
47,-984.863281,-623.535156,-871.093750,-1000.000000,-982.421875,0.182970
48,-1000.000000,-626.953125,-818.847656,-801.269531,-995.117188,0.178962
49,-666.992188,-783.691406,-655.273438,483.398438,-799.316406,0.182868
50,-12.695312,-919.921875,-655.761719,-778.808594,-533.691406,0.186774
51,-499.023438,-813.476562,-788.574219,111.328125,-604.492188,0.190680
52,-1000.000000,-628.417969,-842.773438,-1000.000000,-830.566406,0.194587
53,-991.699219,-604.980469,-801.269531,-953.125000,-1000.000000,0.198493
54,-760.742188,-745.605469,-633.300781,249.023438,-785.156250,0.202399
55,-243.652344,-882.324219,-563.964844,-750.976562,-217.285156,0.206305
56,-514.160156,-819.824219,-732.910156,149.414062,-419.921875,0.210212
57,-963.378906,-654.296875,-862.304688,-1000.000000,-930.175781,0.214118
58,-1000.000000,-607.910156,-838.378906,-1000.000000,-990.234375,0.218024
59,-771.484375,-744.140625,-699.218750,-27.832031,-905.761719,0.221930
60,-47.851562,-906.738281,-647.460938,-760.253906,-589.355469,0.240134
61,-278.808594,-856.933594,-777.832031,232.421875,-533.203125,0.244040
62,-950.195312,-665.527344,-854.492188,-984.375000,-816.406250,0.247946
63,-1000.000000,-596.679688,-841.308594,-1000.000000,-1000.000000,0.251853
64,-844.238281,-714.355469,-696.777344,-148.437500,-869.140625,0.255759
65,-214.355469,-874.511719,-605.468750,-785.644531,-459.960938,0.259665
66,-351.074219,-852.050781,-714.355469,377.929688,-337.890625,0.263571
67,-952.148438,-678.222656,-829.589844,-925.292969,-735.351562,0.267478
68,-1000.000000,-597.656250,-840.820312,-1000.000000,-992.675781,0.271384
69,-825.195312,-718.750000,-729.980469,-192.871094,-997.070312,0.275290
70,-282.714844,-868.652344,-586.425781,-820.312500,-473.144531,0.279196
71,-305.175781,-868.652344,-679.199219,524.902344,-281.738281,0.283103
72,-840.820312,-713.378906,-856.445312,-819.824219,-832.031250,0.274927
73,-1000.000000,-596.679688,-866.699219,-1000.000000,-979.492188,0.278834
74,-891.601562,-693.847656,-757.324219,-218.750000,-983.398438,0.282740
75,-207.519531,-874.511719,-655.761719,-878.417969,-795.410156,0.286646
76,-86.425781,-909.667969,-729.980469,741.699219,-575.195312,0.290552
77,-827.148438,-725.097656,-805.664062,-596.679688,-686.035156,0.294459
78,-1000.000000,-581.542969,-809.570312,-1000.000000,-863.281250,0.298365
79,-937.011719,-671.386719,-742.187500,-250.488281,-991.699219,0.302271
80,-494.140625,-833.984375,-580.566406,-942.382812,-532.226562,0.306177
81,-268.554688,-888.671875,-618.164062,910.644531,-150.878906,0.310084
82,-750.488281,-765.136719,-818.847656,-366.210938,-685.546875,0.313990
83,-991.699219,-616.699219,-875.488281,-1000.000000,-976.562500,0.317896
84,-973.632812,-667.480469,-795.410156,-378.906250,-995.117188,0.340072
85,-399.414062,-842.773438,-669.921875,947.265625,-791.503906,0.343978
86,43.945312,-924.804688,-707.519531,-940.429688,-479.980469,0.347884
87,-627.929688,-782.714844,-833.007812,-131.347656,-689.941406,0.351791
88,-1000.000000,-615.722656,-871.582031,-1000.000000,-950.195312,0.355697
89,-978.027344,-634.277344,-781.250000,-524.414062,-959.472656,0.359603
90,-615.722656,-789.062500,-603.515625,808.593750,-591.308594,0.363509
91,-181.152344,-891.113281,-595.214844,-850.097656,-115.234375,0.367416
92,-613.769531,-789.550781,-782.714844,45.898438,-503.417969,0.371322
93,-981.445312,-627.929688,-887.207031,-1000.000000,-968.261719,0.375228
94,-1000.000000,-623.046875,-815.917969,-735.351562,-976.562500,0.379134
95,-643.066406,-780.273438,-645.996094,583.007812,-744.140625,0.383041
96,63.964844,-921.875000,-666.503906,-788.085938,-482.910156,0.380212
97,-402.343750,-821.289062,-811.035156,127.929688,-598.144531,0.384119
98,-991.699219,-635.742188,-868.164062,-1000.000000,-866.210938,0.388025
99,-1000.000000,-613.769531,-842.285156,-937.988281,-1000.000000,0.391931
100,-666.992188,-764.648438,-696.777344,282.226562,-883.300781,0.395837
101,-18.066406,-904.785156,-636.230469,-751.464844,-448.242188,0.399744
102,-451.171875,-821.777344,-743.164062,182.128906,-379.882812,0.403650
103,-1000.000000,-647.949219,-838.867188,-1000.000000,-791.015625,0.407556
104,-1000.000000,-611.328125,-842.773438,-1000.000000,-1000.000000,0.411462
105,-743.164062,-750.488281,-705.078125,53.710938,-878.906250,0.415369
106,-198.242188,-881.835938,-577.148438,-753.906250,-277.343750,0.419275
107,-431.640625,-832.519531,-705.078125,240.722656,-294.921875,0.423181
108,-916.503906,-679.687500,-873.535156,-982.910156,-884.277344,0.414648
109,-1000.000000,-599.609375,-833.984375,-1000.000000,-973.632812,0.418555
110,-782.226562,-722.656250,-687.500000,-85.449219,-876.464844,0.422461
111,-14.648438,-906.250000,-649.414062,-776.855469,-612.792969,0.426367
112,-141.601562,-881.347656,-768.554688,368.652344,-525.390625,0.430273
113,-893.066406,-682.128906,-832.519531,-922.363281,-710.449219,0.434180
114,-1000.000000,-578.125000,-800.292969,-1000.000000,-855.957031,0.438086
115,-770.019531,-715.820312,-737.304688,-187.011719,-990.722656,0.441992
116,-210.449219,-876.953125,-614.257812,-822.265625,-477.050781,0.445898
117,-309.082031,-866.210938,-664.062500,546.386719,-134.765625,0.449805
118,-824.707031,-717.773438,-854.492188,-800.781250,-719.238281,0.453711
119,-1000.000000,-602.050781,-875.488281,-1000.000000,-978.515625,0.457617
120,-860.351562,-701.660156,-771.972656,-216.796875,-993.164062,0.475014
121,-142.578125,-878.906250,-667.968750,-865.234375,-748.046875,0.478920
122,8.300781,-909.179688,-735.351562,709.472656,-503.906250,0.482826
123,-739.746094,-743.164062,-856.933594,-652.343750,-790.527344,0.486733
124,-1000.000000,-593.261719,-857.421875,-1000.000000,-960.449219,0.490639
125,-902.832031,-661.132812,-743.164062,-239.746094,-919.921875,0.494545
126,-416.015625,-827.636719,-594.726562,-946.777344,-495.605469,0.498451
127,-179.199219,-883.789062,-639.648438,926.757812,-134.277344,0.502358
128,-695.800781,-760.253906,-828.125000,-336.425781,-640.625000,0.506264
129,-1000.000000,-613.769531,-875.000000,-1000.000000,-972.167969,0.510170
130,-941.894531,-667.480469,-797.363281,-382.812500,-1000.000000,0.514076
131,-375.976562,-834.960938,-654.785156,939.941406,-773.437500,0.517983
132,71.289062,-912.597656,-684.570312,-930.175781,-473.144531,0.520100
133,-568.359375,-778.320312,-826.171875,-106.445312,-733.886719,0.524006
134,-1000.000000,-612.304688,-873.535156,-1000.000000,-960.937500,0.527913
135,-969.726562,-641.601562,-821.777344,-553.222656,-1000.000000,0.531819
136,-474.609375,-812.988281,-671.875000,776.855469,-823.730469,0.535725
137,10.742188,-912.109375,-647.949219,-829.589844,-354.003906,0.539631
138,-581.542969,-786.132812,-761.230469,102.539062,-409.667969,0.543538
139,-1000.000000,-607.421875,-808.593750,-1000.000000,-750.000000,0.547444
140,-985.839844,-617.675781,-788.574219,-777.343750,-944.824219,0.551350
141,-559.082031,-790.527344,-679.687500,540.527344,-878.417969,0.555256
142,-73.242188,-895.507812,-597.167969,-781.250000,-251.464844,0.559163
143,-515.136719,-804.199219,-743.652344,137.207031,-404.296875,0.563069
144,-968.261719,-644.042969,-877.441406,-1000.000000,-954.589844,0.555004
145,-1000.000000,-619.628906,-846.679688,-937.500000,-990.234375,0.558910
146,-624.511719,-773.925781,-704.589844,286.132812,-905.273438,0.562816
147,116.210938,-918.945312,-661.621094,-751.953125,-572.753906,0.566722
148,-268.554688,-838.378906,-795.898438,178.222656,-559.082031,0.570629
149,-962.890625,-636.718750,-826.660156,-1000.000000,-757.812500,0.574535
150,-1000.000000,-583.007812,-784.667969,-1000.000000,-883.789062,0.578441
151,-650.390625,-752.441406,-712.402344,50.781250,-1000.000000,0.582347
152,-83.984375,-890.625000,-589.843750,-754.394531,-396.484375,0.586254
153,-398.437500,-833.496094,-697.265625,258.300781,-229.492188,0.590160
154,-902.832031,-677.734375,-851.562500,-971.679688,-865.722656,0.594066
155,-1000.000000,-599.609375,-824.707031,-1000.000000,-985.351562,0.597972
156,-730.957031,-745.117188,-729.980469,-112.304688,-976.074219,0.614979
157,57.617188,-914.550781,-668.457031,-782.714844,-746.582031,0.618885
158,-79.589844,-877.441406,-778.808594,391.601562,-574.707031,0.622791
159,-847.656250,-682.617188,-866.210938,-915.527344,-785.644531,0.626697
160,-1000.000000,-579.101562,-859.375000,-1000.000000,-965.820312,0.630604
161,-809.082031,-700.195312,-729.492188,-167.480469,-921.386719,0.634510
162,-234.863281,-860.839844,-570.312500,-825.195312,-330.078125,0.638416
163,-247.558594,-866.699219,-646.972656,579.589844,-83.007812,0.642322
164,-796.386719,-728.515625,-830.078125,-769.042969,-724.609375,0.646229
165,-1000.000000,-610.351562,-868.164062,-1000.000000,-991.699219,0.650135
166,-822.753906,-702.636719,-771.484375,-208.007812,-984.375000,0.654041
167,-87.402344,-878.417969,-671.386719,-885.253906,-757.324219,0.657947
168,64.453125,-906.738281,-745.117188,776.367188,-518.066406,0.661813
169,-696.777344,-729.980469,-840.820312,-552.734375,-690.917969,0.665719
170,-1000.000000,-583.984375,-845.703125,-1000.000000,-864.257812,0.669625
171,-874.023438,-671.386719,-785.644531,-272.949219,-1000.000000,0.673532
172,-226.562500,-846.191406,-668.457031,-970.214844,-763.671875,0.677438
173,-7.324219,-903.320312,-680.175781,959.472656,-321.289062,0.681344
174,-707.031250,-747.558594,-760.253906,-285.156250,-470.703125,0.685250
175,-1000.000000,-601.562500,-804.199219,-1000.000000,-836.425781,0.689157
176,-905.273438,-670.410156,-790.039062,-399.902344,-1000.000000,0.693063
177,-371.093750,-830.566406,-650.878906,931.152344,-806.152344,0.696969
178,-98.632812,-885.253906,-625.000000,-925.781250,-264.648438,0.700875
179,-640.625000,-760.742188,-798.339844,-104.003906,-520.996094,0.704782
180,-1000.000000,-616.210938,-890.136719,-1000.000000,-949.707031,0.702291
181,-960.937500,-646.972656,-833.007812,-590.332031,-1000.000000,0.706198
182,-442.382812,-820.800781,-680.664062,746.093750,-816.406250,0.710104
183,128.417969,-930.664062,-672.363281,-831.542969,-458.984375,0.714010
184,-442.382812,-808.593750,-803.710938,64.453125,-606.445312,0.717916
185,-1000.000000,-615.722656,-832.031250,-1000.000000,-799.804688,0.721823
186,-993.164062,-598.632812,-773.437500,-785.644531,-821.289062,0.725729
187,-583.007812,-767.089844,-651.855469,523.925781,-743.652344,0.729635
188,-87.890625,-885.742188,-592.773438,-778.320312,-229.980469,0.733541
189,-518.066406,-797.851562,-734.375000,131.835938,-344.238281,0.737448
190,-971.679688,-656.250000,-861.328125,-1000.000000,-893.554688,0.741354
191,-1000.000000,-634.765625,-835.449219,-961.425781,-997.070312,0.745260
192,-610.839844,-773.437500,-713.867188,241.210938,-902.832031,0.760626
193,114.746094,-912.109375,-679.199219,-750.000000,-538.574219,0.764532
194,-277.343750,-823.242188,-810.546875,177.734375,-556.640625,0.768438
195,-958.496094,-642.578125,-881.835938,-1000.000000,-894.042969,0.772344
196,-1000.000000,-601.074219,-841.308594,-1000.000000,-984.863281,0.776251
197,-727.050781,-741.210938,-687.988281,54.199219,-885.742188,0.780157
198,-179.199219,-881.835938,-556.152344,-753.906250,-264.160156,0.784063
199,-452.148438,-827.148438,-666.503906,250.976562,-107.910156,0.787969
200,-927.246094,-664.550781,-815.429688,-970.214844,-716.308594,0.791876
201,-1000.000000,-594.238281,-828.613281,-1000.000000,-953.125000,0.795782
202,-746.582031,-729.492188,-748.046875,-140.625000,-996.582031,0.799688
203,20.996094,-895.019531,-677.734375,-787.109375,-675.781250,0.803594
204,-121.093750,-866.210938,-775.878906,392.578125,-452.148438,0.795545
205,-860.351562,-687.988281,-875.488281,-916.015625,-801.757812,0.799451
206,-1000.000000,-598.632812,-865.234375,-1000.000000,-976.074219,0.803357
207,-785.644531,-723.144531,-743.652344,-192.382812,-1000.000000,0.807264
208,-52.246094,-897.949219,-634.277344,-833.007812,-695.800781,0.811170
209,-132.812500,-891.113281,-674.804688,610.351562,-298.339844,0.815076
210,-857.910156,-706.054688,-781.738281,-753.417969,-642.578125,0.818982
211,-1000.000000,-585.937500,-836.914062,-1000.000000,-955.566406,0.822889
212,-807.128906,-687.500000,-787.109375,-214.355469,-1000.000000,0.826795
213,-223.144531,-847.167969,-644.042969,-882.324219,-649.902344,0.830701
214,-219.726562,-869.140625,-640.625000,760.742188,-134.765625,0.834607
215,-785.156250,-732.910156,-796.875000,-581.542969,-565.917969,0.838514
216,-1000.000000,-615.234375,-853.027344,-1000.000000,-947.265625,0.835354
217,-871.582031,-692.871094,-778.808594,-281.250000,-1000.000000,0.839260
218,-221.679688,-859.375000,-655.273438,-959.472656,-789.062500,0.843167
219,98.632812,-912.597656,-702.636719,921.875000,-513.671875,0.847073
220,-596.679688,-753.906250,-834.472656,-355.957031,-729.003906,0.850979
221,-1000.000000,-578.125000,-832.519531,-1000.000000,-860.351562,0.854885
222,-900.390625,-633.789062,-762.695312,-414.062500,-923.339844,0.858792
223,-339.843750,-826.171875,-656.738281,930.664062,-753.417969,0.862698
224,-76.660156,-894.531250,-611.816406,-955.566406,-201.660156,0.866604
225,-629.882812,-775.390625,-764.160156,-161.132812,-495.605469,0.870510
226,-999.023438,-630.371094,-874.023438,-1000.000000,-952.148438,0.874417
227,-958.984375,-649.902344,-822.753906,-594.238281,-1000.000000,0.878323
228,-424.316406,-811.035156,-687.011719,745.117188,-833.496094,0.895029
229,127.441406,-908.203125,-677.246094,-847.167969,-462.402344,0.898936
230,-467.773438,-782.714844,-787.109375,45.898438,-599.121094,0.902842
231,-1000.000000,-621.093750,-854.492188,-1000.000000,-917.480469,0.906748
232,-993.164062,-631.347656,-822.265625,-797.363281,-1000.000000,0.910654
233,-590.820312,-789.062500,-658.691406,508.300781,-838.378906,0.914561
234,-111.328125,-896.484375,-568.847656,-774.902344,-233.398438,0.918467
235,-544.433594,-803.710938,-716.796875,142.578125,-325.683594,0.922373
236,-969.238281,-647.949219,-878.906250,-1000.000000,-906.250000,0.926279
237,-1000.000000,-615.234375,-857.421875,-963.867188,-994.628906,0.930186
238,-600.097656,-769.531250,-727.539062,237.304688,-919.433594,0.934092
239,126.953125,-919.433594,-672.363281,-749.023438,-574.218750,0.937998
240,-263.671875,-845.214844,-776.855469,183.105469,-523.925781,0.934969
241,-947.265625,-666.992188,-851.074219,-1000.000000,-848.144531,0.938875
242,-1000.000000,-614.746094,-827.636719,-1000.000000,-989.257812,0.942782
243,-672.851562,-751.953125,-713.867188,3.906250,-930.175781,0.946688
244,70.312500,-905.273438,-662.109375,-759.277344,-612.304688,0.950594
245,-289.550781,-844.726562,-741.210938,301.269531,-369.628906,0.954500
246,-962.890625,-654.785156,-810.546875,-953.613281,-578.125000,0.958407
247,-1000.000000,-579.589844,-793.457031,-1000.000000,-810.058594,0.962313
248,-692.871094,-734.375000,-722.656250,-131.835938,-1000.000000,0.966219
249,-77.636719,-887.695312,-616.699219,-790.039062,-554.687500,0.970125
250,-343.750000,-842.773438,-658.203125,410.644531,-152.343750,0.974032
251,-870.605469,-697.265625,-843.261719,-901.855469,-756.347656,0.977938
252,-1000.000000,-603.027344,-867.675781,-1000.000000,-1000.000000,0.979850
253,-782.226562,-715.332031,-755.859375,-191.406250,-979.492188,0.983757
254,-31.250000,-889.160156,-661.132812,-835.937500,-727.050781,0.987663
255,5.859375,-893.066406,-737.792969,610.351562,-479.003906,0.991569
256,-745.605469,-722.167969,-853.515625,-745.117188,-774.902344,0.995475
257,-1000.000000,-584.960938,-833.496094,-1000.000000,-909.667969,0.999382
258,-833.984375,-685.058594,-726.562500,-201.171875,-908.691406,1.003288
259,-220.703125,-865.234375,-615.234375,-891.601562,-605.957031,1.007194
260,-166.015625,-876.464844,-625.976562,804.199219,-145.507812,1.011100
261,-750.488281,-737.792969,-797.851562,-514.648438,-630.859375,1.015007
262,-1000.000000,-612.792969,-876.464844,-1000.000000,-1000.000000,1.018913
263,-860.351562,-681.152344,-793.945312,-282.226562,-996.582031,1.022819
264,-214.355469,-854.003906,-669.433594,-979.003906,-793.945312,1.040103
265,123.535156,-914.062500,-703.125000,978.515625,-476.074219,1.044009
266,-553.710938,-774.414062,-837.402344,-260.253906,-757.324219,1.047915
267,-1000.000000,-613.281250,-860.351562,-1000.000000,-964.843750,1.051821
268,-905.273438,-659.179688,-789.062500,-410.156250,-1000.000000,1.055728
269,-383.300781,-825.195312,-648.437500,915.039062,-732.421875,1.059634
270,-104.980469,-883.789062,-599.609375,-905.761719,-94.238281,1.063540
271,-628.417969,-765.625000,-759.277344,-56.152344,-395.996094,1.067446
272,-1000.000000,-622.558594,-874.511719,-1000.000000,-941.894531,1.071353
273,-956.542969,-645.507812,-816.894531,-613.769531,-995.117188,1.075259
274,-393.554688,-817.382812,-687.500000,715.820312,-851.074219,1.079165
275,116.699219,-914.062500,-662.597656,-814.941406,-399.902344,1.083071
276,-474.121094,-793.457031,-776.855469,120.605469,-489.257812,1.080039
277,-1000.000000,-631.835938,-874.511719,-1000.000000,-904.785156,1.083945
278,-983.398438,-629.882812,-840.332031,-814.453125,-997.558594,1.087851
279,-486.328125,-793.945312,-702.636719,487.792969,-894.531250,1.091758
280,155.761719,-923.828125,-670.410156,-770.996094,-556.640625,1.095664
281,-390.625000,-817.382812,-754.882812,162.109375,-440.917969,1.099570
282,-1000.000000,-624.511719,-802.734375,-1000.000000,-663.574219,1.103476
283,-1000.000000,-595.703125,-790.527344,-976.074219,-870.605469,1.107383
284,-538.085938,-770.996094,-720.703125,217.773438,-990.234375,1.111289
285,4.394531,-895.996094,-615.722656,-748.535156,-382.324219,1.115195
286,-479.003906,-807.617188,-692.382812,189.453125,-175.292969,1.119101
287,-940.917969,-663.085938,-869.140625,-1000.000000,-859.863281,1.123008
288,-1000.000000,-613.281250,-858.398438,-1000.000000,-997.070312,1.120067
289,-648.925781,-755.859375,-736.816406,-4.882812,-960.937500,1.123973
290,97.167969,-912.597656,-661.621094,-760.253906,-601.562500,1.127880
291,-167.480469,-857.910156,-756.347656,285.644531,-462.402344,1.131786
292,-877.929688,-677.734375,-859.863281,-963.378906,-851.074219,1.135692
293,-1000.000000,-583.007812,-812.011719,-1000.000000,-923.339844,1.139598
294,-744.628906,-710.449219,-690.917969,-120.605469,-849.609375,1.143505
295,-112.304688,-877.441406,-602.050781,-788.574219,-464.355469,1.147411
296,-300.292969,-847.656250,-665.527344,419.433594,-140.625000,1.151317
297,-862.304688,-699.707031,-841.796875,-893.066406,-689.453125,1.155223
298,-1000.000000,-606.933594,-871.582031,-1000.000000,-988.281250,1.159130
299,-772.460938,-720.214844,-760.253906,-194.824219,-991.210938,1.163036
300,-29.785156,-891.601562,-666.992188,-838.867188,-722.656250,1.174917
301,28.808594,-895.996094,-739.746094,618.652344,-465.332031,1.178823
302,-721.679688,-726.074219,-853.515625,-734.375000,-783.691406,1.182730
303,-1000.000000,-598.144531,-867.187500,-1000.000000,-970.703125,1.186636
304,-803.710938,-690.917969,-771.484375,-218.750000,-1000.000000,1.190542
305,-219.726562,-851.562500,-621.093750,-906.738281,-637.695312,1.194448
306,-173.339844,-869.140625,-615.722656,838.378906,-91.308594,1.198355
307,-738.281250,-734.375000,-790.039062,-475.097656,-537.597656,1.202261
308,-1000.000000,-610.351562,-879.882812,-1000.000000,-975.097656,1.206167
309,-849.609375,-679.199219,-797.851562,-286.621094,-1000.000000,1.210073
310,-205.566406,-851.562500,-670.410156,-986.816406,-759.765625,1.213980
311,134.765625,-909.667969,-698.730469,995.605469,-434.082031,1.217886
312,-521.484375,-764.160156,-829.589844,-229.492188,-702.148438,1.220728
313,-1000.000000,-606.445312,-871.582031,-1000.000000,-944.824219,1.224635
314,-894.042969,-653.320312,-799.804688,-420.410156,-1000.000000,1.228541
315,-288.085938,-825.195312,-665.527344,893.066406,-819.335938,1.232447
316,144.531250,-910.644531,-671.386719,-877.441406,-407.226562,1.236353
317,-497.558594,-771.972656,-768.554688,30.273438,-489.746094,1.240260
318,-1000.000000,-598.632812,-811.035156,-1000.000000,-768.066406,1.244166
319,-935.546875,-631.835938,-794.921875,-625.488281,-963.378906,1.248072
320,-379.394531,-808.593750,-684.570312,720.214844,-870.117188,1.251978
321,-35.156250,-887.207031,-601.562500,-817.871094,-196.777344,1.255885
322,-588.378906,-773.925781,-723.632812,99.121094,-308.105469,1.259791
323,-983.886719,-633.789062,-873.046875,-1000.000000,-935.058594,1.263697
324,-980.957031,-628.417969,-833.007812,-832.519531,-992.187500,1.259089
325,-460.449219,-792.480469,-702.148438,455.566406,-914.062500,1.262995
326,204.589844,-920.410156,-671.386719,-768.554688,-589.355469,1.266901
327,-291.015625,-821.289062,-788.085938,159.667969,-590.820312,1.270808
328,-965.332031,-645.507812,-869.628906,-1000.000000,-910.644531,1.274714
329,-1000.000000,-595.214844,-795.410156,-959.472656,-903.808594,1.278620
330,-555.175781,-752.441406,-682.617188,249.511719,-846.191406,1.282526
331,37.597656,-894.042969,-623.535156,-748.535156,-364.746094,1.286433
332,-443.359375,-812.011719,-687.988281,199.707031,-144.531250,1.290339
333,-949.707031,-663.574219,-853.027344,-995.605469,-797.363281,1.294245
334,-1000.000000,-617.187500,-851.562500,-1000.000000,-1000.000000,1.298151
335,-671.875000,-747.070312,-705.078125,-12.695312,-875.976562,1.302058
336,74.218750,-899.902344,-643.554688,-762.207031,-488.769531,1.320285
337,-78.613281,-867.187500,-766.601562,307.617188,-500.000000,1.324191
338,-845.214844,-687.988281,-859.375000,-951.660156,-859.375000,1.328097
339,-1000.000000,-605.957031,-848.632812,-1000.000000,-966.308594,1.332003
340,-664.062500,-737.304688,-752.441406,-140.136719,-1000.000000,1.335910
341,-45.410156,-875.488281,-630.371094,-800.292969,-495.605469,1.339816
342,-231.933594,-836.425781,-684.570312,489.257812,-111.328125,1.343722
343,-820.800781,-690.429688,-849.609375,-850.097656,-695.312500,1.347628
344,-1000.000000,-597.167969,-869.628906,-1000.000000,-982.421875,1.351535
345,-722.656250,-718.261719,-753.906250,-187.011719,-1000.000000,1.355441
346,-27.832031,-888.671875,-622.070312,-849.609375,-674.804688,1.359347
347,-8.300781,-891.601562,-673.339844,665.527344,-353.515625,1.363253
348,-680.664062,-728.515625,-834.960938,-684.082031,-786.132812,1.360585
349,-1000.000000,-592.285156,-886.718750,-1000.000000,-989.257812,1.364492
350,-823.730469,-672.851562,-786.132812,-228.515625,-980.957031,1.368398
351,-174.316406,-841.796875,-649.902344,-920.410156,-661.621094,1.372304
352,85.449219,-899.902344,-708.007812,863.281250,-414.062500,1.376210
353,-613.281250,-744.628906,-791.503906,-429.687500,-589.355469,1.380117
354,-1000.000000,-593.261719,-803.222656,-1000.000000,-770.507812,1.384023
355,-828.125000,-673.339844,-770.507812,-336.425781,-993.164062,1.387929
356,-157.226562,-850.097656,-670.898438,988.769531,-850.585938,1.391835
357,-25.878906,-883.789062,-625.000000,-987.792969,-191.894531,1.395742
358,-664.062500,-745.605469,-756.347656,-219.238281,-434.082031,1.399648
359,-1000.000000,-616.699219,-877.441406,-1000.000000,-986.328125,1.403554
360,-885.253906,-654.785156,-814.941406,-456.542969,-994.140625,1.403790
361,-253.417969,-832.519531,-687.988281,879.394531,-800.781250,1.407696
362,187.500000,-921.875000,-693.359375,-886.718750,-427.246094,1.411602
363,-441.894531,-792.968750,-814.453125,-25.390625,-632.812500,1.415509
364,-1000.000000,-628.906250,-874.023438,-1000.000000,-963.867188,1.419415
365,-978.515625,-625.976562,-781.250000,-634.277344,-898.925781,1.423321
366,-455.078125,-790.039062,-644.042969,698.242188,-687.988281,1.427227
367,-33.691406,-884.277344,-604.003906,-812.500000,-192.871094,1.431134
368,-587.890625,-771.972656,-707.519531,103.515625,-268.554688,1.435040
369,-991.699219,-633.300781,-859.375000,-1000.000000,-903.320312,1.438946
370,-971.191406,-629.882812,-824.218750,-863.769531,-998.046875,1.442852
371,-435.058594,-797.363281,-695.800781,410.644531,-917.968750,1.446759
372,211.914062,-921.386719,-681.152344,-763.183594,-573.242188,1.460110
373,-302.734375,-819.824219,-785.156250,147.949219,-555.664062,1.464017
374,-975.097656,-634.277344,-877.929688,-1000.000000,-906.738281,1.467923
375,-1000.000000,-588.378906,-838.867188,-997.558594,-988.281250,1.471829
376,-552.246094,-747.070312,-707.519531,154.785156,-893.554688,1.475735
377,98.632812,-905.273438,-644.042969,-749.023438,-474.121094,1.479642
378,-342.773438,-835.937500,-701.171875,223.144531,-307.128906,1.483548
379,-959.960938,-669.433594,-801.269531,-992.187500,-762.695312,1.487454
380,-1000.000000,-608.886719,-807.617188,-1000.000000,-988.281250,1.491360
381,-669.433594,-734.863281,-714.355469,-12.207031,-948.242188,1.495267
382,-25.390625,-870.117188,-641.113281,-762.207031,-464.843750,1.499173
383,-350.097656,-805.664062,-715.332031,293.457031,-153.320312,1.503079
384,-904.296875,-666.992188,-858.886719,-954.589844,-753.906250,1.495548
385,-1000.000000,-605.957031,-846.191406,-1000.000000,-1000.000000,1.499454
386,-706.542969,-740.234375,-712.890625,-166.015625,-951.171875,1.503360
387,49.804688,-916.015625,-629.394531,-801.757812,-628.906250,1.507267
388,-40.527344,-883.789062,-724.121094,458.007812,-428.222656,1.511173
389,-797.851562,-679.687500,-810.546875,-871.582031,-642.578125,1.515079
390,-1000.000000,-562.988281,-816.894531,-1000.000000,-848.632812,1.518985
391,-739.257812,-693.847656,-766.601562,-198.242188,-989.746094,1.522892
392,-60.058594,-872.070312,-658.691406,-851.562500,-619.628906,1.526798
393,-172.851562,-869.140625,-645.019531,671.875000,-68.359375,1.530704
394,-800.781250,-724.609375,-792.968750,-681.640625,-501.953125,1.534610
395,-1000.000000,-611.328125,-869.140625,-1000.000000,-992.187500,1.538517
396,-833.007812,-689.941406,-756.835938,-222.167969,-953.125000,1.534266
397,-142.578125,-863.281250,-654.296875,-919.433594,-658.203125,1.538172
398,129.882812,-903.808594,-714.843750,870.605469,-406.738281,1.542078
399,-565.917969,-751.464844,-835.449219,-425.781250,-712.890625,1.545984
400,-1000.000000,-604.492188,-869.140625,-1000.000000,-957.031250,1.549891
401,-892.089844,-657.714844,-759.277344,-287.597656,-936.035156,1.553797
402,-270.507812,-833.984375,-632.324219,-997.558594,-663.574219,1.557703
403,-50.292969,-887.207031,-619.628906,-975.585938,-141.601562,1.561609
404,-668.945312,-750.976562,-753.906250,-172.363281,-423.828125,1.565516
405,-1000.000000,-621.093750,-888.183594,-1000.000000,-968.261719,1.569422
406,-886.718750,-654.785156,-831.054688,-482.421875,-991.699219,1.573328
407,-239.746094,-825.195312,-708.984375,851.562500,-880.859375,1.577234
408,214.843750,-912.597656,-706.054688,-871.582031,-508.789062,1.595297
409,-418.457031,-787.597656,-813.476562,5.371094,-661.621094,1.599203
410,-1000.000000,-628.417969,-865.234375,-1000.000000,-979.492188,1.603109
411,-945.800781,-634.277344,-784.667969,-685.058594,-959.960938,1.607016
412,-337.890625,-810.058594,-670.410156,642.578125,-872.558594,1.610922
413,148.925781,-918.945312,-659.179688,-797.363281,-416.503906,1.614828
414,-473.144531,-785.644531,-752.929688,134.277344,-342.285156,1.618734
415,-1000.000000,-621.093750,-870.605469,-1000.000000,-839.843750,1.622641
416,-982.910156,-613.769531,-862.304688,-891.601562,-982.421875,1.626547
417,-423.339844,-787.597656,-745.605469,373.046875,-992.187500,1.630453
418,70.800781,-908.691406,-637.695312,-759.277344,-425.781250,1.634359
419,-500.000000,-805.664062,-690.429688,155.761719,-208.496094,1.638266
420,-966.308594,-656.250000,-838.378906,-1000.000000,-854.492188,1.635112
421,-1000.000000,-615.722656,-827.636719,-1000.000000,-995.117188,1.639018
422,-540.039062,-757.812500,-716.796875,127.929688,-958.984375,1.642924
423,192.382812,-900.878906,-675.781250,-748.535156,-618.652344,1.646831
424,-201.171875,-830.078125,-773.925781,216.308594,-473.632812,1.650737
425,-923.828125,-645.019531,-826.660156,-987.792969,-712.402344,1.654643
426,-1000.000000,-581.542969,-782.714844,-1000.000000,-806.152344,1.658549
427,-599.609375,-745.605469,-718.261719,-73.730469,-932.128906,1.662456
428,54.199219,-896.484375,-643.066406,-771.972656,-516.601562,1.666362
429,-333.984375,-822.753906,-669.433594,346.679688,-99.609375,1.670268
430,-911.621094,-671.386719,-824.218750,-935.058594,-687.988281,1.674174
431,-1000.000000,-599.609375,-854.492188,-1000.000000,-1000.000000,1.678081
432,-693.847656,-726.562500,-738.281250,-168.945312,-988.281250,1.695017
433,49.804688,-897.949219,-645.996094,-808.105469,-721.679688,1.698924
434,-19.042969,-878.906250,-722.656250,487.792969,-466.796875,1.702830
435,-754.882812,-705.078125,-845.703125,-852.050781,-786.132812,1.706736
436,-1000.000000,-592.773438,-858.398438,-1000.000000,-989.257812,1.710642
437,-816.894531,-690.429688,-735.351562,-188.476562,-890.625000,1.714549
438,-173.828125,-861.816406,-624.023438,-862.304688,-498.535156,1.718455
439,-182.617188,-867.187500,-643.066406,726.074219,-110.351562,1.722361
440,-800.292969,-713.378906,-782.226562,-622.070312,-528.808594,1.726267
441,-1000.000000,-593.750000,-847.167969,-1000.000000,-942.871094,1.730174
442,-806.640625,-680.664062,-761.230469,-242.187500,-991.210938,1.734080
443,-110.839844,-859.863281,-668.945312,-929.687500,-809.082031,1.737986
444,112.304688,-902.343750,-702.636719,877.929688,-479.980469,1.735462
445,-574.218750,-752.441406,-826.660156,-416.992188,-772.949219,1.739369
446,-1000.000000,-604.492188,-870.117188,-1000.000000,-977.539062,1.743275
447,-859.863281,-664.062500,-794.921875,-342.285156,-991.699219,1.747181
448,-200.683594,-838.867188,-687.988281,969.726562,-849.121094,1.751087
449,72.753906,-898.925781,-687.500000,-956.542969,-431.152344,1.754994
450,-599.121094,-745.117188,-767.089844,-142.578125,-523.925781,1.758900
451,-1000.000000,-594.238281,-827.636719,-1000.000000,-880.371094,1.762806
452,-917.480469,-642.578125,-784.179688,-513.183594,-982.421875,1.766712
453,-256.347656,-827.636719,-696.289062,816.406250,-925.292969,1.770619
454,5.859375,-892.578125,-633.300781,-844.238281,-332.031250,1.774525
455,-683.593750,-750.488281,-717.773438,64.941406,-298.828125,1.778431
456,-997.070312,-609.375000,-855.957031,-1000.000000,-849.121094,1.775249
457,-948.730469,-617.675781,-803.710938,-732.910156,-924.804688,1.779155
458,-384.277344,-802.734375,-701.171875,594.238281,-914.550781,1.783062
459,194.335938,-928.222656,-688.476562,-792.968750,-631.835938,1.786968
460,-382.324219,-809.082031,-785.644531,112.792969,-651.855469,1.790874
461,-992.675781,-622.558594,-835.449219,-1000.000000,-894.531250,1.794780
462,-1000.000000,-590.332031,-780.273438,-909.179688,-896.484375,1.798687
463,-455.566406,-769.531250,-709.960938,333.007812,-957.519531,1.802593
464,56.152344,-899.414062,-645.019531,-753.906250,-479.492188,1.806499
465,-559.082031,-789.062500,-682.128906,171.875000,-141.601562,1.810405
466,-987.304688,-648.437500,-840.820312,-1000.000000,-768.554688,1.814312
467,-1000.000000,-621.093750,-846.679688,-1000.000000,-1000.000000,1.818218
468,-590.332031,-767.089844,-724.121094,84.472656,-951.660156,1.835098
469,133.789062,-916.992188,-666.992188,-751.464844,-637.207031,1.839004
470,-231.445312,-845.703125,-764.160156,225.585938,-530.761719,1.842910
471,-919.921875,-653.808594,-843.261719,-989.746094,-827.148438,1.846817
472,-1000.000000,-582.031250,-806.640625,-1000.000000,-920.410156,1.850723
473,-726.074219,-725.097656,-695.312500,-61.523438,-881.835938,1.854629
474,-87.402344,-881.835938,-599.121094,-771.972656,-400.878906,1.858535
475,-382.812500,-835.449219,-647.460938,364.257812,-104.003906,1.862442
476,-937.011719,-680.664062,-809.082031,-923.828125,-696.777344,1.866348
477,-1000.000000,-602.539062,-856.445312,-1000.000000,-998.046875,1.870254
478,-729.980469,-723.144531,-754.394531,-183.593750,-993.652344,1.874160
479,5.371094,-891.601562,-669.433594,-813.476562,-758.300781,1.878067
480,-59.082031,-874.511719,-735.839844,498.046875,-481.445312,1.875123
481,-774.414062,-701.171875,-849.609375,-844.238281,-800.781250,1.879030
482,-1000.000000,-592.773438,-859.863281,-1000.000000,-990.234375,1.882936
483,-821.777344,-692.871094,-740.722656,-197.265625,-930.175781,1.886842
484,-111.328125,-868.164062,-636.230469,-864.746094,-668.457031,1.890748
485,-53.710938,-881.347656,-687.500000,722.656250,-359.863281,1.894655
486,-770.019531,-706.542969,-780.273438,-622.558594,-569.824219,1.898561
487,-1000.000000,-575.195312,-810.058594,-1000.000000,-822.265625,1.902467
488,-829.589844,-674.316406,-760.253906,-251.953125,-961.914062,1.906373
489,-115.234375,-867.187500,-690.917969,-957.519531,-877.441406,1.910280
490,-97.656250,-882.812500,-642.089844,956.542969,-257.812500,1.914186
491,-800.781250,-726.074219,-743.652344,-312.988281,-415.527344,1.918092
492,-1000.000000,-608.886719,-875.000000,-1000.000000,-966.308594,1.920241
493,-873.535156,-665.527344,-797.363281,-358.886719,-995.117188,1.924147
494,-217.285156,-844.238281,-682.617188,965.332031,-881.347656,1.928053
495,136.718750,-915.527344,-697.753906,-957.031250,-520.507812,1.931960
496,-533.691406,-772.460938,-807.617188,-154.296875,-663.574219,1.935866
497,-1000.000000,-599.121094,-833.496094,-1000.000000,-874.511719,1.939772
498,-936.523438,-624.511719,-758.300781,-546.875000,-889.648438,1.943678
499,-275.390625,-822.753906,-699.707031,780.273438,-948.242188,1.947585
500,20.507812,-902.832031,-647.460938,-831.542969,-385.253906,1.951491
501,-691.894531,-752.929688,-685.058594,90.332031,-211.425781,1.955397
502,-1000.000000,-612.792969,-826.660156,-1000.000000,-804.687500,1.959303
503,-956.054688,-634.277344,-825.195312,-761.718750,-1000.000000,1.963210
504,-403.320312,-804.687500,-709.472656,562.500000,-923.339844,1.980117
505,189.941406,-922.363281,-684.082031,-786.621094,-628.906250,1.984023
506,-388.183594,-806.152344,-783.691406,120.117188,-635.253906,1.987930
507,-987.304688,-636.230469,-870.117188,-1000.000000,-928.222656,1.991836
508,-1000.000000,-618.164062,-834.472656,-916.992188,-987.792969,1.995742
509,-592.285156,-770.019531,-688.964844,326.171875,-825.195312,1.999648
510,-42.480469,-892.089844,-604.492188,-752.441406,-252.929688,2.003555
511,-546.875000,-791.992188,-681.152344,167.968750,-141.113281,2.007461
512,-990.234375,-642.578125,-836.425781,-1000.000000,-781.738281,2.011367
513,-1000.000000,-612.792969,-848.144531,-1000.000000,-1000.000000,2.015273
514,-605.468750,-759.765625,-725.585938,64.941406,-935.058594,2.019180
515,125.000000,-914.062500,-667.480469,-752.441406,-604.492188,2.023086
516,-280.761719,-836.914062,-739.257812,226.074219,-412.109375,2.015186
517,-950.683594,-653.320312,-825.195312,-982.421875,-753.417969,2.019092
518,-1000.000000,-600.585938,-835.449219,-1000.000000,-976.562500,2.022998
519,-680.175781,-741.699219,-736.328125,-114.257812,-990.722656,2.026905
520,41.015625,-903.808594,-656.738281,-780.273438,-666.503906,2.030811
521,-250.488281,-850.585938,-707.031250,362.792969,-297.363281,2.034717
522,-918.457031,-665.527344,-798.339844,-928.222656,-603.515625,2.038623
523,-1000.000000,-587.890625,-829.101562,-1000.000000,-930.664062,2.042530
524,-742.675781,-721.679688,-748.535156,-186.035156,-1000.000000,2.046436
525,-9.277344,-890.625000,-660.156250,-829.589844,-787.597656,2.050342
526,-266.113281,-852.539062,-648.437500,606.445312,-188.476562,2.054248
527,-927.734375,-690.917969,-775.390625,-755.859375,-514.648438,2.058155
528,-1000.000000,-602.539062,-863.281250,-1000.000000,-1000.000000,2.065218
529,-805.175781,-702.636719,-762.207031,-206.054688,-990.234375,2.069124
530,-69.824219,-879.394531,-672.851562,-884.765625,-803.710938,2.073030
531,-22.949219,-890.136719,-697.265625,776.367188,-364.746094,2.076936
532,-764.160156,-722.167969,-793.457031,-559.082031,-571.777344,2.080843
533,-1000.000000,-585.937500,-827.148438,-1000.000000,-910.644531,2.084749
534,-891.113281,-658.203125,-716.796875,-231.445312,-843.261719,2.088655
535,-196.289062,-850.585938,-645.996094,-961.425781,-708.496094,2.092561
536,-67.382812,-883.789062,-647.949219,983.398438,-268.066406,2.096468
537,-801.757812,-720.703125,-725.097656,-245.117188,-402.832031,2.100374
538,-1000.000000,-604.980469,-856.933594,-1000.000000,-944.335938,2.104280
539,-882.812500,-666.992188,-807.617188,-389.648438,-1000.000000,2.108186
540,-221.679688,-845.703125,-692.382812,943.359375,-887.695312,2.115306
541,166.992188,-918.945312,-701.171875,-938.476562,-572.753906,2.119213
542,-522.949219,-772.460938,-809.570312,-128.417969,-740.722656,2.123119
543,-1000.000000,-615.234375,-880.371094,-1000.000000,-995.605469,2.127025
544,-951.660156,-641.113281,-813.476562,-559.082031,-962.890625,2.130931
545,-392.089844,-811.035156,-677.246094,767.578125,-843.261719,2.134838
546,-54.199219,-893.066406,-611.328125,-825.195312,-266.113281,2.138744
547,-694.335938,-760.742188,-691.894531,116.699219,-217.285156,2.142650
548,-1000.000000,-627.929688,-853.027344,-1000.000000,-874.511719,2.146556
549,-967.773438,-634.277344,-834.960938,-793.457031,-1000.000000,2.150463
550,-437.011719,-799.804688,-711.914062,522.949219,-917.480469,2.154369
551,179.687500,-924.804688,-687.500000,-779.785156,-586.914062,2.158275
552,-380.371094,-811.035156,-783.691406,130.859375,-579.589844,2.155130
553,-984.863281,-638.183594,-866.210938,-1000.000000,-924.316406,2.159036
554,-1000.000000,-615.234375,-829.101562,-942.382812,-975.585938,2.162943
555,-521.484375,-774.414062,-709.472656,274.414062,-975.097656,2.166849
556,137.695312,-910.644531,-664.062500,-750.488281,-631.835938,2.170755
557,-399.414062,-812.500000,-732.421875,184.570312,-411.621094,2.174661
558,-986.816406,-629.882812,-803.710938,-1000.000000,-738.769531,2.178568
559,-1000.000000,-586.425781,-799.316406,-1000.000000,-917.480469,2.182474
560,-609.375000,-754.882812,-727.539062,26.367188,-988.281250,2.186380
561,71.289062,-907.226562,-656.738281,-757.324219,-570.800781,2.190286
562,-444.335938,-816.894531,-669.921875,294.921875,-115.722656,2.194193
563,-990.722656,-658.691406,-810.546875,-957.031250,-663.574219,2.198099
564,-1000.000000,-605.957031,-854.980469,-1000.000000,-1000.000000,2.195195
565,-696.777344,-736.328125,-740.234375,-119.628906,-987.304688,2.199101
566,56.640625,-900.878906,-660.156250,-784.179688,-705.078125,2.203008
567,-140.136719,-863.769531,-733.398438,377.441406,-440.429688,2.206914
568,-844.238281,-689.941406,-853.515625,-923.828125,-820.800781,2.210820
569,-1000.000000,-580.566406,-815.429688,-1000.000000,-947.753906,2.214726
570,-779.296875,-701.171875,-696.289062,-172.851562,-878.417969,2.218633
571,-10.253906,-892.089844,-662.597656,-838.867188,-751.464844,2.222539
572,-227.050781,-855.468750,-657.714844,657.714844,-214.355469,2.226445
573,-941.406250,-686.035156,-767.578125,-701.171875,-473.632812,2.230351
574,-1000.000000,-597.656250,-874.511719,-1000.000000,-1000.000000,2.234258
575,-811.035156,-694.335938,-774.902344,-208.984375,-987.792969,2.238164
576,-78.613281,-875.000000,-674.316406,-881.835938,-771.484375,2.255010
577,42.480469,-898.437500,-716.308594,756.347656,-440.917969,2.258916
578,-693.847656,-733.886719,-821.777344,-579.101562,-700.195312,2.262823
579,-1000.000000,-600.585938,-859.863281,-1000.000000,-978.515625,2.266729
580,-871.093750,-670.410156,-764.648438,-272.949219,-974.609375,2.270635
581,-255.371094,-841.308594,-641.601562,-991.699219,-704.101562,2.274541
582,-154.785156,-870.605469,-611.328125,-980.957031,-123.535156,2.278448
583,-821.289062,-720.214844,-720.703125,-189.453125,-349.609375,2.282354
584,-1000.000000,-602.539062,-863.769531,-1000.000000,-954.101562,2.286260
585,-901.367188,-655.273438,-800.292969,-407.714844,-990.234375,2.290166
586,-255.859375,-836.914062,-687.988281,929.687500,-908.691406,2.294073
587,153.320312,-916.992188,-700.683594,-924.804688,-545.898438,2.297979
588,-535.644531,-770.996094,-801.757812,-104.492188,-628.417969,2.295219
589,-1000.000000,-615.234375,-869.628906,-1000.000000,-963.867188,2.299125
590,-939.453125,-644.042969,-812.500000,-596.191406,-1000.000000,2.303032
591,-428.710938,-804.199219,-667.480469,732.421875,-809.570312,2.306938
592,34.179688,-905.273438,-644.531250,-820.312500,-370.605469,2.310844
593,-527.343750,-778.320312,-751.953125,101.562500,-431.640625,2.314750
594,-1000.000000,-599.609375,-807.617188,-1000.000000,-737.792969,2.318657
595,-993.652344,-606.445312,-774.902344,-807.128906,-848.632812,2.322563
596,-432.128906,-798.339844,-705.566406,493.164062,-917.480469,2.326469
597,80.078125,-910.156250,-650.390625,-770.996094,-458.984375,2.330375
598,-592.285156,-775.878906,-688.476562,167.480469,-209.960938,2.334282
599,-1000.000000,-630.371094,-838.378906,-1000.000000,-794.921875,2.338188
600,-999.023438,-613.281250,-845.214844,-969.726562,-1000.000000,2.335085
601,-559.082031,-767.089844,-719.726562,235.351562,-957.031250,2.338992
602,143.554688,-914.062500,-669.921875,-750.000000,-583.007812,2.342898
603,-318.847656,-829.101562,-758.300781,180.175781,-424.804688,2.346804
604,-949.707031,-657.226562,-855.468750,-1000.000000,-860.839844,2.350710
605,-1000.000000,-589.843750,-795.898438,-1000.000000,-908.691406,2.354617
606,-670.898438,-736.328125,-680.664062,37.597656,-831.054688,2.358523
607,15.136719,-896.972656,-643.554688,-754.882812,-504.394531,2.362429
608,-445.312500,-813.964844,-670.410156,313.964844,-94.726562,2.366335
609,-997.558594,-656.738281,-805.664062,-943.847656,-604.003906,2.370242
610,-1000.000000,-602.050781,-858.886719,-1000.000000,-1000.000000,2.374148
611,-722.167969,-734.375000,-741.210938,-136.718750,-978.515625,2.378054
612,54.687500,-903.320312,-665.527344,-790.039062,-681.640625,2.395057
613,-118.652344,-868.652344,-736.328125,399.414062,-397.949219,2.398964
614,-842.285156,-693.847656,-851.074219,-910.644531,-760.742188,2.402870
615,-1000.000000,-593.750000,-853.515625,-1000.000000,-978.515625,2.406776
616,-772.949219,-708.984375,-743.652344,-188.964844,-997.070312,2.410682
617,-62.988281,-880.371094,-648.437500,-852.539062,-697.265625,2.414589
618,-285.644531,-853.515625,-629.394531,694.824219,-49.804688,2.418495
619,-962.402344,-691.894531,-749.511719,-658.691406,-399.414062,2.422401
620,-1000.000000,-603.027344,-858.886719,-1000.000000,-992.675781,2.426307
621,-823.242188,-693.359375,-762.207031,-215.820312,-1000.000000,2.430214
622,-171.875000,-862.304688,-645.996094,-891.601562,-691.406250,2.434120
623,-11.718750,-895.019531,-700.683594,785.156250,-372.558594,2.438026
624,-682.617188,-738.769531,-836.425781,-542.480469,-741.699219,2.435208
625,-1000.000000,-601.074219,-875.000000,-1000.000000,-987.792969,2.439114
626,-875.976562,-673.828125,-781.250000,-289.550781,-979.980469,2.443020
627,-179.199219,-857.910156,-683.593750,-982.910156,-889.160156,2.446927
628,103.515625,-911.621094,-711.425781,977.539062,-549.316406,2.450833
629,-646.972656,-744.628906,-782.714844,-257.812500,-572.753906,2.454739
630,-1000.000000,-588.378906,-818.847656,-1000.000000,-829.101562,2.458645
631,-930.175781,-638.183594,-757.812500,-435.546875,-893.066406,2.462552
632,-243.164062,-836.914062,-695.800781,873.046875,-870.605469,2.466458
633,43.945312,-904.785156,-660.644531,-868.164062,-363.769531,2.470364
634,-740.722656,-745.605469,-704.101562,43.457031,-270.019531,2.474270
635,-1000.000000,-615.234375,-854.003906,-1000.000000,-888.183594,2.478177
636,-952.636719,-639.160156,-821.289062,-662.109375,-1000.000000,2.479932
637,-433.593750,-803.222656,-677.734375,679.199219,-827.148438,2.483838
638,137.207031,-916.015625,-674.316406,-816.406250,-488.769531,2.487745
639,-453.125000,-795.898438,-792.480469,66.406250,-572.265625,2.491651
640,-997.070312,-628.906250,-868.652344,-1000.000000,-932.617188,2.495557
641,-1000.000000,-608.886719,-790.039062,-871.093750,-937.500000,2.499463
642,-518.554688,-772.460938,-666.503906,384.277344,-831.542969,2.503370
643,52.246094,-907.714844,-643.554688,-758.789062,-437.500000,2.507276
644,-561.035156,-786.621094,-692.871094,164.062500,-206.054688,2.511182
645,-1000.000000,-625.488281,-810.058594,-1000.000000,-736.816406,2.515088
646,-1000.000000,-609.375000,-824.707031,-1000.000000,-1000.000000,2.518995
647,-573.242188,-771.484375,-721.679688,130.859375,-964.843750,2.522901
648,148.925781,-916.992188,-675.292969,-748.046875,-633.789062,2.535042
649,-308.105469,-830.566406,-763.183594,185.058594,-487.792969,2.538948
650,-946.289062,-657.714844,-865.722656,-1000.000000,-871.093750,2.542854
651,-1000.000000,-603.515625,-844.726562,-1000.000000,-992.187500,2.546761
652,-722.167969,-739.746094,-705.566406,-14.160156,-885.253906,2.550667
653,-30.761719,-895.996094,-630.371094,-762.207031,-497.558594,2.554573
654,-434.082031,-825.195312,-659.667969,336.425781,-97.167969,2.558479
655,-1000.000000,-659.667969,-785.156250,-935.058594,-572.265625,2.562386
656,-1000.000000,-602.539062,-850.097656,-1000.000000,-1000.000000,2.566292
657,-737.792969,-728.515625,-735.839844,-155.761719,-987.304688,2.570198
658,52.246094,-903.320312,-669.433594,-795.898438,-770.507812,2.574104
659,-110.839844,-872.558594,-737.792969,412.597656,-453.125000,2.578011
660,-845.214844,-693.847656,-846.679688,-902.832031,-767.089844,2.575141
661,-1000.000000,-592.773438,-855.957031,-1000.000000,-993.652344,2.579047
662,-791.503906,-700.683594,-751.953125,-202.148438,-980.468750,2.582953
663,-18.066406,-885.253906,-681.152344,-839.355469,-832.031250,2.586860
664,-31.250000,-890.136719,-731.445312,611.328125,-504.394531,2.590766
665,-812.500000,-706.542969,-798.828125,-741.210938,-630.859375,2.594672
666,-1000.000000,-581.542969,-800.292969,-1000.000000,-906.250000,2.598578
667,-888.183594,-670.410156,-696.289062,-205.566406,-881.835938,2.602485
668,-148.925781,-867.187500,-648.437500,-926.757812,-739.257812,2.606391
669,-86.425781,-883.789062,-661.132812,912.109375,-227.539062,2.610297
670,-891.601562,-703.613281,-729.003906,-356.933594,-346.191406,2.614203
671,-1000.000000,-597.656250,-861.816406,-1000.000000,-971.191406,2.618110
672,-883.300781,-666.992188,-793.457031,-322.265625,-998.046875,2.615022
673,-196.777344,-851.562500,-690.429688,-994.140625,-883.789062,2.618928
674,144.531250,-913.574219,-716.308594,984.863281,-536.621094,2.622834
675,-600.097656,-756.835938,-812.011719,-262.695312,-636.230469,2.626741
676,-1000.000000,-607.910156,-872.070312,-1000.000000,-968.750000,2.630647
677,-959.960938,-636.718750,-761.718750,-433.105469,-895.996094,2.634553
678,-371.582031,-817.382812,-643.554688,873.046875,-675.292969,2.638459
679,-1.953125,-897.949219,-642.089844,-863.769531,-258.300781,2.642366
680,-712.890625,-744.628906,-702.148438,65.429688,-249.023438,2.646272
681,-1000.000000,-609.375000,-846.679688,-1000.000000,-854.492188,2.650178
682,-964.355469,-626.953125,-805.175781,-672.363281,-987.304688,2.654084
683,-397.460938,-803.222656,-683.593750,673.828125,-832.519531,2.657991
684,187.011719,-923.339844,-688.964844,-810.546875,-473.632812,2.675023
685,-442.871094,-800.781250,-781.250000,86.425781,-562.988281,2.678929
686,-995.605469,-634.765625,-872.070312,-1000.000000,-961.425781,2.682835
687,-1000.000000,-620.117188,-830.078125,-867.187500,-965.820312,2.686742
688,-482.910156,-782.714844,-718.261719,396.972656,-977.050781,2.690648
689,66.406250,-901.855469,-651.855469,-759.277344,-533.203125,2.694554
690,-563.476562,-780.273438,-675.292969,174.316406,-145.996094,2.698460
691,-999.511719,-629.394531,-811.035156,-1000.000000,-705.566406,2.702367
692,-1000.000000,-616.210938,-836.425781,-1000.000000,-1000.000000,2.706273
693,-594.726562,-769.042969,-718.261719,146.972656,-962.402344,2.710179
694,149.902344,-917.968750,-674.804688,-749.511719,-676.757812,2.714085
695,-291.992188,-833.984375,-760.742188,194.824219,-524.414062,2.717992
696,-942.382812,-660.156250,-869.140625,-997.070312,-889.160156,2.715300
697,-1000.000000,-595.703125,-828.613281,-1000.000000,-981.445312,2.719207
698,-664.550781,-738.769531,-708.984375,-56.640625,-991.210938,2.723113
699,74.707031,-907.714844,-657.714844,-767.578125,-684.082031,2.727019
700,-237.792969,-853.515625,-729.980469,301.757812,-418.457031,2.730925
701,-910.644531,-668.457031,-818.847656,-958.007812,-742.187500,2.734832
702,-1000.000000,-576.171875,-791.015625,-1000.000000,-886.230469,2.738738
703,-763.671875,-710.937500,-693.359375,-143.554688,-860.839844,2.742644
704,69.824219,-908.203125,-683.105469,-815.429688,-796.386719,2.746550
705,-229.980469,-861.816406,-682.617188,571.777344,-278.320312,2.750457
706,-992.187500,-679.687500,-754.882812,-775.878906,-459.472656,2.754363
707,-1000.000000,-606.933594,-859.863281,-1000.000000,-1000.000000,2.758269
708,-793.945312,-713.378906,-757.324219,-191.894531,-988.769531,2.759427
709,-0.488281,-894.042969,-683.105469,-850.585938,-836.914062,2.763333
710,37.109375,-897.949219,-739.746094,660.156250,-538.085938,2.767239
711,-752.929688,-726.074219,-842.773438,-691.894531,-746.582031,2.771145
712,-1000.000000,-596.679688,-856.933594,-1000.000000,-984.863281,2.775052
713,-883.300781,-668.945312,-720.703125,-208.496094,-913.085938,2.778958
714,-208.496094,-858.886719,-638.671875,-943.847656,-673.828125,2.782864
715,-123.046875,-883.789062,-645.507812,954.101562,-144.531250,2.786770
716,-858.398438,-715.332031,-729.492188,-285.156250,-295.410156,2.790677
717,-1000.000000,-606.933594,-861.328125,-1000.000000,-919.921875,2.794583
718,-880.859375,-675.292969,-795.898438,-331.054688,-999.511719,2.798489
719,-179.687500,-858.398438,-690.429688,992.675781,-888.183594,2.802395
720,178.222656,-923.339844,-713.867188,-985.351562,-551.757812,2.819723
721,-575.195312,-766.113281,-808.105469,-205.566406,-636.718750,2.823629
722,-1000.000000,-614.746094,-875.976562,-1000.000000,-960.937500,2.827535
723,-939.941406,-651.855469,-808.105469,-482.910156,-982.421875,2.831442
724,-285.644531,-832.519531,-704.589844,833.984375,-917.968750,2.835348
725,39.550781,-904.785156,-652.832031,-847.167969,-314.941406,2.839254
726,-687.500000,-761.230469,-721.191406,82.031250,-256.347656,2.843160
727,-1000.000000,-615.234375,-839.355469,-1000.000000,-845.703125,2.847067
728,-973.632812,-623.535156,-785.644531,-704.589844,-934.082031,2.850973
729,-388.183594,-811.035156,-703.125000,633.789062,-925.781250,2.854879
730,145.507812,-918.945312,-674.316406,-798.339844,-494.628906,2.858785
731,-528.808594,-785.156250,-737.792969,118.164062,-348.632812,2.862692
732,-994.628906,-631.835938,-854.003906,-1000.000000,-845.703125,2.860266
733,-1000.000000,-622.558594,-826.171875,-891.601562,-994.628906,2.864172
734,-505.859375,-786.132812,-710.937500,369.140625,-929.687500,2.868079
735,171.386719,-919.433594,-677.246094,-758.300781,-558.105469,2.871985
736,-375.488281,-815.429688,-763.671875,156.250000,-394.042969,2.875891
737,-974.609375,-628.906250,-826.171875,-1000.000000,-706.054688,2.879797
738,-1000.000000,-580.566406,-772.460938,-1000.000000,-786.621094,2.883704
739,-591.796875,-754.882812,-693.359375,118.652344,-820.312500,2.887610
740,161.621094,-920.410156,-676.269531,-749.511719,-578.125000,2.891516
741,-397.949219,-817.871094,-683.593750,269.042969,-140.136719,2.895422
742,-1000.000000,-636.230469,-763.671875,-965.332031,-500.000000,2.899329
743,-1000.000000,-591.796875,-814.453125,-1000.000000,-937.988281,2.903235
744,-680.664062,-739.257812,-728.027344,-77.636719,-981.933594,2.894771
745,135.742188,-912.109375,-683.105469,-773.925781,-763.183594,2.898677
746,-138.183594,-862.304688,-751.464844,333.496094,-486.816406,2.902583
747,-885.253906,-685.058594,-851.074219,-943.847656,-770.019531,2.906489
748,-1000.000000,-604.492188,-858.886719,-1000.000000,-1000.000000,2.910396
749,-823.730469,-709.472656,-701.660156,-151.367188,-800.292969,2.914302
750,-30.273438,-887.207031,-649.414062,-824.707031,-546.875000,2.918208
751,-198.242188,-856.933594,-682.617188,608.398438,-228.515625,2.922114
752,-972.656250,-671.875000,-750.488281,-742.187500,-419.433594,2.926021
753,-1000.000000,-595.214844,-848.632812,-1000.000000,-959.960938,2.929927
754,-797.363281,-706.054688,-751.953125,-197.753906,-994.628906,2.933833
755,-1.953125,-892.089844,-682.128906,-861.816406,-810.058594,2.937739
756,76.660156,-906.250000,-743.652344,699.218750,-532.714844,2.960128
757,-723.144531,-721.679688,-816.894531,-648.437500,-668.457031,2.964034
758,-1000.000000,-585.937500,-835.449219,-1000.000000,-875.000000,2.967940
759,-846.679688,-682.128906,-769.042969,-233.886719,-976.074219,2.971847
760,-70.312500,-877.929688,-699.707031,-962.402344,-914.062500,2.975753
761,-30.761719,-895.019531,-667.968750,980.468750,-281.250000,2.979659
762,-851.562500,-720.703125,-724.609375,-245.117188,-296.386719,2.983565
763,-1000.000000,-604.980469,-861.328125,-1000.000000,-937.988281,2.987472
764,-891.113281,-664.550781,-796.875000,-353.515625,-994.628906,2.991378
765,-204.589844,-846.679688,-690.429688,974.609375,-916.015625,2.995284
766,143.066406,-911.621094,-701.171875,-960.937500,-530.273438,2.999190
767,-600.097656,-758.789062,-791.503906,-162.597656,-579.101562,3.003097
768,-1000.000000,-613.281250,-872.558594,-1000.000000,-961.425781,3.000183
769,-940.917969,-644.531250,-806.640625,-523.925781,-986.328125,3.004089
770,-314.453125,-820.312500,-692.871094,813.964844,-899.414062,3.007995
771,158.691406,-916.503906,-688.476562,-855.957031,-521.484375,3.011901
772,-530.273438,-770.996094,-759.765625,26.367188,-427.246094,3.015808
773,-1000.000000,-594.726562,-812.500000,-1000.000000,-718.261719,3.019714
774,-997.070312,-596.679688,-752.929688,-719.238281,-811.035156,3.023620
775,-462.402344,-781.738281,-662.597656,597.656250,-744.628906,3.027526
776,131.347656,-912.109375,-670.410156,-786.621094,-472.656250,3.031433
777,-546.875000,-769.042969,-691.894531,162.597656,-227.539062,3.035339
778,-1000.000000,-615.234375,-812.500000,-1000.000000,-708.007812,3.039245
779,-995.117188,-622.070312,-844.726562,-924.316406,-1000.000000,3.043151
780,-520.507812,-783.691406,-717.773438,323.242188,-970.703125,3.038931
781,185.058594,-923.828125,-680.664062,-755.859375,-664.550781,3.042838
782,-351.074219,-819.824219,-758.300781,162.109375,-484.375000,3.046744
783,-969.238281,-645.996094,-858.886719,-1000.000000,-864.746094,3.050650
784,-1000.000000,-603.515625,-840.332031,-1000.000000,-1000.000000,3.054556
785,-701.660156,-741.210938,-686.035156,115.234375,-806.640625,3.058463
786,19.042969,-899.902344,-638.671875,-749.511719,-449.218750,3.062369
787,-406.250000,-809.082031,-671.386719,259.765625,-120.605469,3.066275
788,-1000.000000,-635.253906,-763.671875,-965.332031,-521.972656,3.070181
789,-1000.000000,-607.421875,-848.632812,-1000.000000,-1000.000000,3.074088
790,-694.335938,-743.652344,-739.257812,-100.097656,-974.609375,3.077994
791,131.347656,-912.597656,-680.664062,-776.855469,-717.285156,3.081900
792,-105.957031,-861.328125,-749.511719,320.312500,-431.152344,3.100118
793,-871.582031,-681.152344,-845.214844,-947.753906,-759.277344,3.104024
794,-1000.000000,-600.585938,-853.515625,-1000.000000,-993.652344,3.107930
795,-758.300781,-719.238281,-734.863281,-186.035156,-977.050781,3.111837
796,55.175781,-900.390625,-671.875000,-816.894531,-814.941406,3.115743
797,-85.937500,-875.000000,-708.496094,507.812500,-381.347656,3.119649
798,-876.464844,-688.476562,-791.015625,-824.218750,-570.800781,3.123555
799,-1000.000000,-591.796875,-854.003906,-1000.000000,-976.074219,3.127462
800,-812.500000,-696.777344,-755.371094,-198.242188,-977.539062,3.131368
801,4.882812,-888.183594,-691.406250,-895.507812,-871.582031,3.135274
802,-51.269531,-885.742188,-685.058594,816.894531,-327.636719,3.139180
803,-899.902344,-697.265625,-728.515625,-485.839844,-337.890625,3.143087
804,-1000.000000,-598.144531,-850.585938,-1000.000000,-923.339844,3.140056
805,-850.097656,-682.128906,-778.808594,-262.207031,-1000.000000,3.143962
806,-128.417969,-863.281250,-679.687500,-942.871094,-874.511719,3.147868
807,120.605469,-905.273438,-709.960938,899.902344,-521.972656,3.151774
808,-647.460938,-740.234375,-800.292969,-380.859375,-611.816406,3.155681
809,-1000.000000,-590.332031,-838.867188,-1000.000000,-903.320312,3.159587
810,-942.871094,-637.695312,-732.910156,-338.867188,-833.496094,3.163493
811,-233.398438,-841.308594,-671.875000,960.449219,-815.429688,3.167399
812,102.050781,-910.644531,-687.500000,-937.500000,-465.332031,3.171306
813,-711.914062,-735.351562,-710.449219,-67.382812,-275.390625,3.175212
814,-1000.000000,-604.980469,-837.402344,-1000.000000,-822.753906,3.179118
815,-937.500000,-646.484375,-822.753906,-571.777344,-1000.000000,3.183024
816,-324.218750,-821.777344,-701.171875,787.597656,-916.503906,3.200133
817,175.292969,-920.410156,-690.917969,-864.257812,-502.441406,3.204040
818,-530.761719,-775.878906,-759.765625,14.648438,-352.050781,3.207946
819,-1000.000000,-621.582031,-857.421875,-1000.000000,-813.964844,3.211852
820,-983.398438,-625.488281,-824.218750,-762.695312,-998.046875,3.215758
821,-514.648438,-781.738281,-674.316406,545.410156,-807.617188,3.219665
822,53.710938,-906.250000,-643.554688,-777.343750,-382.324219,3.223571
823,-535.644531,-775.878906,-682.617188,168.457031,-173.828125,3.227477
824,-1000.000000,-615.234375,-797.851562,-1000.000000,-669.433594,3.231383
825,-994.628906,-618.164062,-843.261719,-949.707031,-1000.000000,3.235290
826,-520.019531,-777.343750,-720.703125,273.437500,-930.664062,3.239196
827,210.449219,-920.898438,-682.617188,-751.953125,-629.394531,3.243102
828,-300.292969,-824.218750,-761.718750,174.316406,-471.191406,3.240145
829,-961.425781,-652.343750,-859.375000,-1000.000000,-833.007812,3.244051
830,-1000.000000,-609.375000,-848.632812,-1000.000000,-991.210938,3.247958
831,-614.257812,-756.835938,-725.097656,46.386719,-963.867188,3.251864
832,179.199219,-916.992188,-684.570312,-754.882812,-714.843750,3.255770
833,-238.769531,-842.773438,-742.187500,276.367188,-397.949219,3.259676
834,-958.984375,-650.390625,-797.363281,-962.890625,-574.707031,3.263583
835,-1000.000000,-580.078125,-795.410156,-1000.000000,-785.156250,3.267489
836,-699.707031,-727.539062,-703.125000,-120.605469,-847.167969,3.271395
837,149.902344,-913.085938,-688.964844,-796.386719,-743.652344,3.275301
838,-201.171875,-848.144531,-693.359375,488.281250,-255.859375,3.279208
839,-987.792969,-655.273438,-745.605469,-846.679688,-413.574219,3.283114
840,-1000.000000,-595.703125,-852.050781,-1000.000000,-969.726562,3.280082
841,-754.394531,-716.308594,-756.835938,-182.617188,-995.117188,3.283988
842,62.500000,-894.042969,-681.152344,-830.078125,-821.289062,3.287894
843,43.457031,-889.160156,-745.117188,578.613281,-509.765625,3.291800
844,-768.066406,-710.449219,-836.425781,-774.902344,-678.222656,3.295707
845,-1000.000000,-583.496094,-831.542969,-1000.000000,-907.714844,3.299613
846,-853.027344,-674.316406,-702.148438,-189.941406,-846.679688,3.303519
847,-43.457031,-878.417969,-669.921875,-913.574219,-786.621094,3.307425
848,-4.882812,-888.671875,-683.593750,888.183594,-337.402344,3.311332
849,-857.421875,-701.171875,-723.632812,-393.066406,-328.125000,3.315238
850,-1000.000000,-599.121094,-855.468750,-1000.000000,-919.433594,3.319144
851,-836.425781,-684.082031,-793.457031,-273.925781,-1000.000000,3.323050
852,-107.421875,-867.187500,-689.453125,-965.820312,-860.351562,3.340093
853,175.292969,-917.968750,-715.820312,960.449219,-506.347656,3.344000
854,-597.656250,-754.882812,-804.199219,-291.015625,-636.718750,3.347906
855,-1000.000000,-609.863281,-873.535156,-1000.000000,-980.957031,3.351812
856,-901.855469,-658.691406,-794.433594,-391.113281,-976.562500,3.355718
857,-303.710938,-827.636719,-656.738281,906.250000,-759.765625,3.359625
858,48.339844,-898.925781,-648.437500,-876.464844,-297.851562,3.363531
859,-644.531250,-743.652344,-701.171875,49.804688,-213.378906,3.367437
860,-1000.000000,-606.445312,-824.707031,-1000.000000,-775.390625,3.371343
861,-949.218750,-644.042969,-805.664062,-579.589844,-997.558594,3.375250
862,-337.890625,-818.359375,-679.687500,770.996094,-849.609375,3.379156
863,181.152344,-918.457031,-675.781250,-831.542969,-466.796875,3.383062
864,-472.167969,-785.644531,-771.972656,82.519531,-500.000000,3.380810
865,-999.023438,-630.371094,-874.023438,-1000.000000,-946.289062,3.384716
866,-975.585938,-629.882812,-830.078125,-806.640625,-984.863281,3.388623
867,-406.738281,-798.339844,-708.007812,491.699219,-925.292969,3.392529
868,244.628906,-926.757812,-688.476562,-772.460938,-583.984375,3.396435
869,-384.277344,-804.687500,-751.953125,151.855469,-364.257812,3.400341
870,-1000.000000,-623.046875,-811.523438,-1000.000000,-663.085938,3.404248
871,-995.605469,-604.003906,-804.687500,-963.867188,-904.296875,3.408154
872,-500.976562,-773.437500,-715.332031,233.886719,-966.796875,3.412060
873,262.695312,-927.734375,-705.566406,-749.023438,-762.207031,3.415966
874,-324.707031,-809.570312,-705.078125,228.515625,-283.203125,3.419873
875,-1000.000000,-628.417969,-770.019531,-988.769531,-535.644531,3.423779
876,-1000.000000,-613.281250,-848.144531,-1000.000000,-1000.000000,3.420503
877,-573.242188,-756.835938,-734.375000,12.695312,-985.839844,3.424409
878,188.476562,-907.226562,-663.574219,-760.253906,-608.398438,3.428315
879,-134.765625,-847.656250,-742.187500,287.597656,-409.179688,3.432222
880,-861.816406,-675.781250,-854.492188,-963.867188,-820.800781,3.436128
881,-1000.000000,-587.402344,-825.195312,-1000.000000,-923.339844,3.440034
882,-732.910156,-712.402344,-682.617188,-98.632812,-778.808594,3.443940
883,182.128906,-910.644531,-685.546875,-801.757812,-708.984375,3.447847
884,-35.156250,-863.769531,-719.726562,540.527344,-329.589844,3.451753
885,-928.222656,-662.597656,-753.906250,-798.828125,-408.691406,3.455659
886,-1000.000000,-600.097656,-858.886719,-1000.000000,-974.121094,3.459565
887,-700.683594,-720.703125,-767.578125,-178.710938,-997.070312,3.463472
888,327.148438,-896.484375,-694.824219,-844.726562,-777.832031,3.480145
889,364.746094,-893.066406,-754.394531,652.343750,-460.937500,3.484051
890,-645.019531,-716.796875,-846.679688,-702.148438,-678.222656,3.487958
891,-1000.000000,-601.074219,-881.835938,-1000.000000,-978.027344,3.491864
892,-820.312500,-694.824219,-771.972656,-191.894531,-980.468750,3.495770
893,364.257812,-869.140625,-671.875000,-932.128906,-751.953125,3.499676
894,480.957031,-876.464844,-672.363281,939.453125,-207.031250,3.503583
895,-764.160156,-704.101562,-728.515625,-312.011719,-250.000000,3.507489
896,-1000.000000,-600.585938,-852.050781,-1000.000000,-850.097656,3.511395
897,-875.976562,-683.105469,-801.757812,-276.367188,-1000.000000,3.515301
898,266.113281,-862.304688,-701.660156,-981.933594,-874.511719,3.519208
899,674.316406,-909.667969,-724.609375,-992.187500,-508.300781,3.523114
900,-548.339844,-751.953125,-802.734375,-206.054688,-586.914062,3.515069
901,-1000.000000,-610.351562,-875.000000,-1000.000000,-956.542969,3.518976
902,-959.472656,-658.691406,-800.781250,-401.855469,-986.328125,3.522882
903,164.550781,-835.937500,-699.707031,906.250000,-886.230469,3.526788
904,717.285156,-906.738281,-713.867188,-878.906250,-502.929688,3.530694
905,-551.757812,-751.953125,-769.531250,34.667969,-417.480469,3.534601
906,-991.210938,-592.285156,-825.683594,-1000.000000,-753.906250,3.538507
907,-1000.000000,-631.835938,-797.851562,-618.652344,-967.285156,3.542413
908,-4.394531,-810.058594,-683.105469,716.308594,-857.421875,3.546319
909,729.980469,-904.785156,-662.109375,-810.058594,-431.152344,3.550226
910,-532.226562,-759.277344,-694.335938,156.738281,-215.332031,3.554132
911,-992.675781,-602.050781,-796.386719,-1000.000000,-674.316406,3.558038
