,TP9,AF7,AF8,TP10,Right AUX,timestamps
0,21.484375,35.644531,17.089844,14.160156,15.625000,0.000000
1,31.738281,33.203125,14.648438,26.367188,21.972656,0.003906
2,33.691406,27.343750,34.179688,30.273438,28.808594,0.007812
3,-0.488281,-0.488281,-0.488281,-0.488281,-0.488281,0.011719
4,-0.488281,-0.488281,0.000000,0.000000,-1.464844,0.015625
5,1.464844,0.976562,0.976562,0.976562,10.742188,0.019531
6,-2.929688,-3.417969,-3.417969,-2.929688,-16.601562,0.023438
7,14.648438,15.136719,14.648438,16.601562,82.519531,0.027344
8,50.292969,39.062500,27.343750,45.898438,349.121094,0.031250
9,50.781250,34.179688,7.812500,46.386719,441.894531,0.035156
10,31.250000,38.574219,8.789062,42.968750,435.546875,0.039062
11,27.832031,38.574219,19.531250,45.410156,410.156250,0.042969
12,35.644531,28.320312,2.929688,40.039062,361.816406,0.060633
13,34.667969,23.437500,-11.230469,34.179688,339.843750,0.064539
14,42.968750,30.761719,12.207031,47.851562,323.730469,0.068446
15,38.085938,33.691406,27.343750,49.804688,274.902344,0.072352
16,19.531250,30.273438,20.507812,32.226562,270.507812,0.076258
17,19.531250,25.878906,20.507812,26.367188,262.695312,0.080164
18,35.644531,23.437500,8.789062,26.855469,234.375000,0.084071
19,39.550781,30.273438,-5.859375,29.785156,223.144531,0.087977
20,42.480469,37.109375,18.066406,41.992188,229.003906,0.091883
21,47.363281,35.644531,35.644531,40.039062,240.722656,0.095789
22,45.898438,24.902344,23.925781,33.203125,213.867188,0.099696
23,59.570312,25.878906,2.929688,71.289062,187.500000,0.103602
24,54.687500,31.738281,6.835938,69.824219,168.457031,0.100196
25,38.085938,29.296875,33.203125,28.320312,184.570312,0.104102
26,37.597656,31.738281,38.085938,35.156250,189.453125,0.108008
27,44.433594,29.785156,20.019531,42.480469,169.433594,0.111914
28,43.457031,22.460938,-7.812500,33.203125,147.460938,0.115821
29,41.503906,29.296875,-19.042969,43.457031,134.277344,0.119727
30,49.316406,33.203125,2.929688,52.246094,135.253906,0.123633
31,47.363281,24.414062,57.128906,30.761719,138.183594,0.127539
32,40.039062,21.972656,46.875000,30.761719,141.601562,0.131446
33,41.015625,22.949219,30.761719,51.757812,117.675781,0.135352
34,41.503906,27.343750,47.851562,43.945312,96.679688,0.139258
35,29.296875,33.203125,31.250000,26.367188,95.214844,0.143164
36,36.132812,35.644531,19.531250,33.203125,135.253906,0.140511
37,45.410156,36.621094,30.273438,30.761719,140.625000,0.144418
38,34.179688,36.132812,29.296875,19.531250,105.957031,0.148324
39,34.667969,34.179688,33.691406,24.414062,65.429688,0.152230
40,41.992188,34.667969,18.554688,36.621094,14.160156,0.156136
41,36.621094,20.996094,6.347656,43.457031,-6.835938,0.160043
42,37.597656,20.996094,25.878906,36.621094,43.945312,0.163949
43,35.156250,31.250000,13.183594,25.390625,37.597656,0.167855
44,20.996094,34.179688,27.343750,12.695312,10.742188,0.171761
45,19.531250,39.550781,47.363281,18.066406,62.011719,0.175668
46,18.554688,38.085938,36.132812,38.574219,70.312500,0.179574
47,20.019531,36.132812,28.808594,34.179688,73.242188,0.183480
48,32.714844,30.273438,34.179688,44.921875,110.351562,0.200026
49,34.179688,28.808594,44.433594,51.757812,121.093750,0.203933
50,8.789062,29.785156,49.316406,28.808594,114.746094,0.207839
51,3.906250,23.925781,49.316406,34.667969,104.492188,0.211745
52,9.277344,25.390625,41.992188,24.902344,78.613281,0.215651
53,-0.488281,19.531250,38.574219,1.464844,64.453125,0.219558
54,-14.648438,10.742188,40.039062,-11.230469,65.429688,0.223464
55,-25.390625,16.601562,48.339844,-14.648438,57.617188,0.227370
56,-9.765625,26.855469,37.597656,12.207031,73.730469,0.231276
57,-6.347656,31.250000,60.058594,21.484375,82.519531,0.235183
58,-24.414062,20.507812,40.039062,6.347656,43.945312,0.239089
59,-18.554688,9.765625,30.273438,20.019531,72.753906,0.242995
60,-15.625000,16.601562,77.636719,22.949219,78.613281,0.244232
61,-23.437500,23.437500,79.589844,-13.671875,51.269531,0.248139
62,-17.089844,20.507812,86.425781,-10.253906,52.734375,0.252045
63,-13.671875,22.460938,81.054688,2.441406,36.621094,0.255951
64,0.000000,23.437500,67.871094,1.953125,43.945312,0.259857
65,0.488281,25.878906,60.058594,17.089844,55.664062,0.263764
66,4.394531,28.808594,50.781250,19.531250,27.343750,0.267670
67,9.277344,20.019531,36.621094,16.601562,22.460938,0.271576
68,6.347656,24.414062,38.085938,28.808594,51.269531,0.275482
69,18.066406,37.597656,67.382812,44.433594,31.738281,0.279389
70,10.253906,25.878906,66.894531,26.855469,7.324219,0.283295
71,7.812500,19.042969,61.035156,16.113281,41.015625,0.287201
72,21.484375,31.250000,41.015625,33.691406,72.753906,0.280166
73,12.695312,31.250000,20.019531,14.648438,65.917969,0.284072
74,-1.953125,24.414062,67.871094,0.000000,76.660156,0.287979
75,10.742188,21.484375,79.589844,12.695312,79.589844,0.291885
76,13.183594,27.343750,59.082031,27.343750,29.296875,0.295791
77,9.277344,33.203125,66.406250,28.808594,12.207031,0.299697
78,16.601562,30.761719,67.871094,43.945312,54.687500,0.303604
79,17.578125,22.460938,43.457031,36.621094,42.480469,0.307510
80,28.808594,21.484375,37.109375,27.343750,23.925781,0.311416
81,33.203125,27.832031,55.664062,36.621094,36.132812,0.315322
82,26.855469,25.878906,69.335938,43.945312,36.132812,0.319229
83,35.156250,26.367188,70.312500,36.132812,9.277344,0.323135
84,39.062500,28.808594,57.617188,27.343750,35.156250,0.340809
85,25.390625,23.925781,52.246094,28.320312,67.382812,0.344716
86,19.042969,15.625000,47.851562,35.644531,33.691406,0.348622
87,23.925781,14.160156,53.710938,47.851562,18.554688,0.352528
88,18.066406,26.367188,50.781250,52.246094,22.949219,0.356434
89,11.718750,29.785156,61.035156,27.343750,70.800781,0.360341
90,9.277344,28.808594,77.148438,9.277344,109.375000,0.364247
91,14.160156,26.855469,56.640625,1.464844,86.914062,0.368153
92,25.878906,27.832031,54.199219,11.718750,70.312500,0.372059
93,21.972656,33.691406,37.109375,24.414062,30.273438,0.375966
94,24.902344,32.714844,26.367188,19.042969,-15.625000,0.379872
95,29.296875,30.761719,55.664062,12.695312,10.742188,0.383778
96,11.230469,24.902344,73.242188,10.253906,43.945312,0.380360
97,6.835938,14.648438,62.988281,25.390625,16.601562,0.384266
98,21.484375,14.160156,50.292969,32.714844,-22.460938,0.388172
99,20.507812,24.902344,57.128906,18.554688,-6.347656,0.392078
100,18.554688,27.832031,39.062500,13.671875,44.921875,0.395985
101,20.019531,23.437500,23.925781,15.136719,43.945312,0.399891
102,14.160156,24.414062,41.503906,18.066406,37.597656,0.403797
103,8.300781,22.949219,65.917969,18.554688,38.574219,0.407703
104,13.183594,20.507812,48.339844,22.949219,24.414062,0.411610
105,24.902344,29.296875,6.347656,34.667969,-7.812500,0.415516
106,28.808594,32.226562,14.160156,35.156250,-25.390625,0.419422
107,24.414062,28.808594,40.527344,33.203125,6.835938,0.423328
108,21.484375,37.109375,52.246094,30.273438,4.394531,0.440828
109,29.785156,30.761719,48.828125,16.113281,-16.113281,0.444734
110,35.644531,23.925781,53.222656,28.320312,-2.441406,0.448640
111,32.226562,33.691406,44.921875,32.226562,10.253906,0.452547
112,31.250000,34.179688,30.273438,23.437500,7.812500,0.456453
113,31.250000,35.644531,24.902344,33.691406,-0.976562,0.460359
114,28.320312,35.644531,20.507812,30.761719,-1.464844,0.464265
115,32.226562,36.132812,26.367188,22.949219,-23.925781,0.468172
116,35.156250,40.039062,40.039062,26.367188,1.464844,0.472078
117,20.507812,30.761719,42.480469,24.414062,15.625000,0.475984
118,14.160156,25.878906,25.878906,21.972656,4.882812,0.479890
119,17.578125,29.296875,16.601562,24.414062,7.812500,0.483797
120,20.507812,25.390625,34.179688,20.019531,-18.554688,0.480724
121,16.601562,19.042969,46.875000,18.066406,-33.203125,0.484630
122,28.808594,26.367188,39.062500,26.855469,-19.531250,0.488536
123,42.480469,33.203125,41.015625,34.667969,25.390625,0.492442
124,26.367188,29.296875,40.039062,37.597656,20.507812,0.496349
125,17.578125,29.296875,30.761719,32.714844,28.320312,0.500255
126,16.601562,31.250000,35.156250,17.578125,67.871094,0.504161
127,22.949219,29.785156,32.714844,16.113281,56.152344,0.508067
128,31.738281,20.019531,11.718750,26.367188,36.132812,0.511974
129,25.390625,18.554688,14.160156,20.507812,25.878906,0.515880
130,24.414062,30.761719,23.437500,10.253906,14.160156,0.519786
131,21.972656,38.574219,41.503906,19.042969,26.367188,0.523692
132,20.019531,35.156250,50.292969,22.949219,28.320312,0.520656
133,19.042969,29.785156,11.718750,14.160156,41.015625,0.524563
134,19.531250,29.785156,17.578125,16.113281,26.855469,0.528469
135,23.437500,26.367188,55.175781,15.625000,-1.464844,0.532375
136,19.042969,22.949219,45.410156,16.601562,6.835938,0.536281
137,18.066406,38.085938,28.808594,26.367188,-16.601562,0.540188
138,10.742188,33.691406,44.433594,13.671875,-13.183594,0.544094
139,20.507812,27.343750,40.039062,8.300781,-3.906250,0.548000
140,33.691406,36.621094,16.113281,17.578125,-40.039062,0.551906
141,30.273438,40.039062,17.089844,18.554688,-15.136719,0.555813
142,23.437500,35.644531,20.507812,28.320312,49.804688,0.559719
143,20.507812,26.367188,9.765625,24.414062,54.687500,0.563625
144,19.042969,24.414062,41.503906,15.625000,30.761719,0.579943
145,27.343750,29.296875,63.964844,24.902344,43.457031,0.583849
146,27.343750,33.691406,50.292969,21.484375,73.730469,0.587755
147,27.832031,35.644531,12.207031,35.156250,83.007812,0.591662
148,25.390625,32.226562,15.625000,29.785156,67.871094,0.595568
149,28.808594,33.203125,59.570312,25.878906,44.433594,0.599474
150,38.574219,32.226562,55.664062,36.621094,41.503906,0.603380
151,18.554688,19.531250,47.363281,25.390625,42.480469,0.607287
152,17.089844,20.996094,31.738281,26.855469,29.296875,0.611193
153,25.390625,29.296875,21.484375,33.691406,3.417969,0.615099
154,19.531250,33.691406,23.437500,46.386719,0.000000,0.619005
155,23.925781,40.039062,16.113281,41.015625,0.976562,0.622912
156,29.785156,42.480469,25.878906,22.949219,16.113281,0.620491
157,29.296875,40.527344,41.992188,21.484375,18.554688,0.624398
158,28.808594,32.714844,38.574219,24.902344,8.300781,0.628304
159,23.925781,28.320312,38.085938,29.296875,32.226562,0.632210
160,20.507812,18.066406,30.273438,27.343750,0.000000,0.636116
161,19.042969,20.996094,8.300781,13.671875,-59.082031,0.640023
162,20.507812,38.085938,14.648438,18.554688,-24.414062,0.643929
163,22.949219,37.109375,46.386719,28.320312,3.906250,0.647835
164,23.925781,36.621094,49.804688,15.625000,32.226562,0.651741
165,29.296875,36.621094,38.085938,3.417969,42.480469,0.655648
166,19.042969,28.320312,41.503906,4.882812,-4.394531,0.659554
167,15.625000,31.738281,40.527344,5.859375,-32.226562,0.663460
168,19.531250,31.738281,27.343750,3.417969,2.441406,0.660300
169,19.531250,25.390625,31.738281,5.859375,39.550781,0.664206
170,23.925781,31.250000,47.363281,4.394531,19.042969,0.668113
171,20.996094,31.738281,51.757812,0.976562,-9.765625,0.672019
172,18.066406,25.878906,45.410156,19.042969,13.671875,0.675925
173,12.207031,32.226562,29.785156,32.714844,5.371094,0.679831
174,17.578125,34.667969,29.785156,24.414062,-13.183594,0.683738
175,23.437500,33.691406,24.414062,18.066406,-9.765625,0.687644
176,16.113281,36.132812,3.417969,2.929688,-23.925781,0.691550
177,5.371094,30.761719,20.507812,5.859375,-13.183594,0.695456
178,5.371094,31.250000,53.222656,17.089844,18.554688,0.699363
179,14.648438,32.714844,44.433594,8.789062,33.203125,0.703269
180,12.207031,23.437500,25.878906,6.835938,38.574219,0.720491
181,16.113281,24.414062,28.808594,18.554688,14.648438,0.724398
182,20.507812,37.597656,36.132812,24.414062,42.480469,0.728304
183,10.253906,36.132812,33.203125,16.601562,65.917969,0.732210
184,10.253906,23.437500,18.066406,17.089844,56.640625,0.736116
185,28.320312,26.367188,5.859375,23.925781,46.875000,0.740023
186,28.320312,34.667969,18.554688,18.554688,36.132812,0.743929
187,19.042969,36.132812,35.156250,23.437500,33.691406,0.747835
188,13.671875,31.738281,39.550781,23.925781,40.527344,0.751741
189,17.089844,29.296875,25.878906,6.835938,36.132812,0.755648
190,21.484375,35.644531,21.484375,5.371094,21.484375,0.759554
191,20.507812,32.226562,41.503906,20.996094,55.664062,0.763460
192,15.625000,24.414062,20.996094,27.832031,58.105469,0.760269
193,10.253906,25.878906,6.347656,21.972656,29.785156,0.764175
194,18.554688,33.691406,40.527344,22.949219,28.808594,0.768081
195,17.578125,31.250000,44.921875,27.343750,27.343750,0.771988
196,17.089844,28.808594,25.390625,25.878906,52.246094,0.775894
197,23.437500,34.179688,24.902344,25.878906,34.179688,0.779800
198,25.390625,35.156250,19.531250,20.996094,-4.394531,0.783706
199,27.343750,35.156250,18.066406,18.554688,-2.441406,0.787613
200,31.250000,32.226562,35.156250,31.738281,40.527344,0.791519
201,35.156250,33.203125,29.296875,44.921875,90.820312,0.795425
202,34.179688,33.203125,18.554688,46.386719,61.035156,0.799331
203,35.644531,28.808594,25.390625,27.832031,34.179688,0.803238
204,30.273438,26.855469,23.925781,12.207031,9.765625,0.820390
205,14.160156,22.949219,39.062500,16.601562,32.226562,0.824297
206,15.136719,27.343750,49.804688,20.996094,41.992188,0.828203
207,19.042969,32.714844,29.296875,13.183594,1.464844,0.832109
208,20.996094,35.644531,6.347656,21.484375,20.996094,0.836015
209,24.414062,37.109375,17.578125,28.320312,32.714844,0.839922
210,19.531250,28.320312,45.898438,25.878906,31.738281,0.843828
211,26.855469,26.855469,45.898438,35.644531,23.437500,0.847734
212,28.320312,28.808594,28.320312,41.015625,23.925781,0.851640
213,27.832031,22.460938,36.621094,38.085938,22.460938,0.855547
214,31.738281,24.902344,28.320312,17.089844,30.761719,0.859453
215,17.578125,18.554688,11.230469,12.695312,48.828125,0.863359
216,18.554688,17.578125,24.414062,18.066406,57.128906,0.845641
217,27.832031,24.902344,37.109375,9.277344,43.457031,0.849547
218,17.578125,24.902344,44.921875,18.066406,45.410156,0.853454
219,17.578125,36.621094,33.203125,30.273438,60.546875,0.857360
220,22.949219,36.621094,25.878906,19.042969,47.363281,0.861266
221,20.507812,29.296875,38.574219,19.042969,43.457031,0.865172
222,25.878906,27.343750,47.851562,28.320312,24.902344,0.869079
223,29.296875,25.878906,34.179688,31.250000,18.066406,0.872985
224,18.554688,26.367188,26.367188,23.437500,47.851562,0.876891
225,9.765625,26.855469,37.109375,8.789062,69.335938,0.880797
226,12.207031,22.949219,30.273438,7.812500,66.894531,0.884704
227,18.554688,19.042969,15.625000,13.671875,24.902344,0.888610
228,23.925781,23.925781,30.761719,20.507812,3.906250,0.900072
229,22.949219,39.062500,29.785156,22.460938,28.320312,0.903979
230,20.019531,40.527344,15.136719,17.089844,38.574219,0.907885
231,26.367188,24.902344,35.156250,20.507812,9.765625,0.911791
232,24.414062,27.832031,41.503906,34.179688,-4.882812,0.915697
233,15.136719,46.875000,20.996094,31.738281,-4.882812,0.919604
234,7.324219,55.175781,19.531250,3.417969,5.859375,0.923510
235,-2.929688,54.199219,40.527344,-20.996094,2.441406,0.927416
236,-3.417969,61.035156,44.433594,-21.484375,-17.089844,0.931322
237,-0.976562,58.593750,36.132812,-21.972656,9.765625,0.935229
238,-21.484375,52.246094,26.855469,-35.644531,-12.207031,0.939135
239,-26.855469,62.500000,20.996094,-43.945312,15.136719,0.943041
240,-23.925781,78.613281,29.785156,-33.203125,35.156250,0.940658
241,-43.945312,75.195312,24.902344,-44.921875,16.113281,0.944564
242,-62.988281,61.035156,-4.394531,-76.660156,11.230469,0.948470
243,-71.777344,61.523438,2.929688,-84.960938,-29.785156,0.952377
244,-74.218750,72.753906,22.460938,-71.289062,-14.648438,0.956283
245,-76.660156,76.171875,32.714844,-74.707031,-7.812500,0.960189
246,-89.843750,60.058594,47.851562,-93.261719,-4.394531,0.964095
247,-115.722656,57.617188,47.851562,-113.281250,25.878906,0.968002
248,-119.628906,79.589844,56.640625,-113.769531,14.160156,0.971908
249,-111.328125,94.238281,28.808594,-107.910156,14.160156,0.975814
250,-130.859375,79.101562,13.183594,-133.300781,28.320312,0.979720
251,-144.531250,74.707031,35.644531,-140.625000,52.246094,0.983627
252,-141.113281,85.449219,31.738281,-141.113281,40.527344,1.000494
253,-130.371094,83.496094,47.851562,-137.695312,38.574219,1.004400
254,-115.722656,74.707031,64.941406,-127.929688,26.855469,1.008306
255,-120.117188,66.894531,74.218750,-121.093750,8.789062,1.012213
256,-105.468750,68.847656,36.132812,-96.679688,-0.488281,1.016119
257,-75.683594,65.917969,13.671875,-85.937500,-12.207031,1.020025
258,-86.425781,45.410156,52.246094,-91.796875,-0.976562,1.023931
259,-92.285156,53.222656,60.546875,-80.078125,4.882812,1.027838
260,-67.382812,66.894531,33.691406,-62.011719,49.316406,1.031744
261,-55.664062,48.339844,29.785156,-43.945312,34.667969,1.035650
262,-47.851562,35.156250,40.527344,-30.273438,1.464844,1.039556
263,-27.343750,36.621094,33.203125,-12.207031,13.183594,1.043463
264,1.953125,36.621094,59.082031,6.347656,34.179688,1.040478
265,10.253906,34.179688,47.851562,20.507812,19.042969,1.044385
266,4.882812,16.113281,24.414062,22.949219,17.089844,1.048291
267,20.507812,7.812500,44.433594,27.832031,-11.230469,1.052197
268,35.644531,16.113281,53.222656,45.898438,-10.742188,1.056103
269,47.363281,13.671875,41.992188,64.941406,6.835938,1.060010
270,55.664062,10.253906,35.644531,77.148438,-11.230469,1.063916
271,67.382812,6.835938,31.250000,88.867188,-48.339844,1.067822
272,74.218750,6.347656,41.015625,103.515625,-37.109375,1.071728
273,87.890625,12.207031,59.082031,106.933594,8.789062,1.075635
274,97.167969,12.207031,50.292969,110.839844,13.671875,1.079541
275,93.750000,3.417969,28.808594,105.957031,9.765625,1.083447
276,99.609375,9.765625,26.855469,101.074219,10.253906,1.080447
277,104.492188,15.136719,42.968750,102.050781,16.113281,1.084353
278,109.375000,11.230469,26.367188,102.539062,-8.300781,1.088259
279,116.210938,16.113281,20.996094,96.191406,-10.742188,1.092166
280,116.699219,19.042969,48.828125,95.214844,6.835938,1.096072
281,103.515625,19.531250,58.593750,100.585938,8.300781,1.099978
282,104.003906,19.042969,57.128906,103.027344,23.437500,1.103884
283,112.792969,23.925781,49.804688,107.421875,-1.953125,1.107791
284,109.863281,19.531250,52.734375,112.304688,15.625000,1.111697
285,99.609375,9.765625,56.152344,121.093750,23.925781,1.115603
286,108.886719,8.300781,43.457031,111.816406,-3.417969,1.119509
287,110.351562,13.183594,48.828125,97.167969,3.906250,1.123416
288,95.703125,16.113281,52.734375,98.632812,6.835938,1.140487
289,96.191406,15.625000,37.597656,101.074219,14.648438,1.144393
290,102.050781,16.113281,55.175781,104.003906,1.953125,1.148300
291,100.097656,22.949219,72.265625,108.886719,27.343750,1.152206
292,97.167969,22.460938,62.011719,92.773438,68.359375,1.156112
293,87.402344,10.742188,54.687500,83.984375,74.218750,1.160018
294,84.472656,10.253906,28.808594,94.726562,26.367188,1.163925
295,87.890625,17.578125,34.667969,83.007812,-15.136719,1.167831
296,84.472656,20.019531,66.406250,58.593750,-7.812500,1.171737
297,83.007812,25.390625,67.382812,61.523438,11.230469,1.175643
298,82.519531,28.808594,66.406250,75.195312,21.972656,1.179550
299,76.171875,27.343750,57.128906,75.195312,10.253906,1.183456
300,71.289062,24.414062,59.570312,77.148438,0.976562,1.180333
301,83.007812,26.367188,47.851562,90.332031,-7.324219,1.184239
302,88.378906,27.343750,37.597656,81.542969,11.230469,1.188146
303,84.472656,22.460938,39.062500,80.566406,21.972656,1.192052
304,82.031250,20.996094,32.714844,81.054688,31.250000,1.195958
305,64.941406,17.578125,42.480469,50.292969,57.617188,1.199864
306,57.128906,17.578125,56.640625,43.945312,42.968750,1.203771
307,64.941406,14.160156,52.734375,50.781250,6.347656,1.207677
308,64.941406,18.554688,51.757812,41.503906,19.531250,1.211583
309,64.941406,31.250000,51.757812,42.968750,-7.324219,1.215489
310,65.917969,33.691406,38.085938,53.222656,-52.246094,1.219396
311,54.687500,27.343750,40.527344,56.152344,-24.414062,1.223302
312,56.152344,26.855469,29.785156,60.546875,-18.554688,1.220179
313,59.082031,30.273438,30.273438,52.246094,-6.347656,1.224085
314,36.621094,24.902344,48.828125,49.804688,-9.765625,1.227991
315,31.250000,17.578125,51.269531,46.386719,10.742188,1.231897
316,28.808594,19.042969,42.968750,46.875000,31.738281,1.235804
317,26.855469,20.019531,44.433594,51.757812,22.460938,1.239710
318,34.179688,15.625000,43.945312,45.898438,43.945312,1.243616
319,37.597656,20.996094,32.714844,58.105469,35.644531,1.247522
320,43.457031,26.855469,19.042969,51.269531,19.042969,1.251429
321,43.945312,27.832031,17.089844,50.781250,10.742188,1.255335
322,45.898438,32.226562,40.039062,62.011719,18.066406,1.259241
323,54.687500,31.738281,32.226562,53.710938,62.988281,1.263147
324,53.710938,25.878906,24.414062,50.781250,56.152344,1.280219
325,34.667969,17.578125,36.621094,52.734375,2.441406,1.284125
326,26.855469,20.019531,43.945312,46.386719,-5.859375,1.288032
327,34.667969,31.738281,46.386719,43.457031,-1.464844,1.291938
328,40.527344,27.832031,41.503906,45.410156,29.785156,1.295844
329,44.433594,18.554688,22.949219,54.199219,63.964844,1.299750
330,44.433594,20.996094,22.949219,48.339844,41.015625,1.303657
331,44.921875,31.250000,29.785156,56.152344,5.859375,1.307563
332,45.410156,33.203125,24.902344,56.152344,20.996094,1.311469
333,40.039062,26.367188,28.320312,37.597656,9.765625,1.315375
334,38.574219,25.878906,20.507812,37.597656,-20.996094,1.319282
335,41.015625,31.738281,17.089844,46.386719,-10.253906,1.323188
336,30.761719,35.644531,24.902344,42.968750,8.300781,1.320399
337,23.437500,32.226562,39.550781,20.507812,-2.929688,1.324305
338,20.507812,29.296875,54.687500,19.042969,7.812500,1.328211
339,20.019531,27.832031,41.015625,24.414062,21.972656,1.332118
340,24.414062,24.902344,31.250000,21.484375,-7.812500,1.336024
341,29.785156,26.367188,38.085938,28.808594,-4.394531,1.339930
342,29.785156,26.367188,14.160156,31.250000,-2.441406,1.343836
343,21.484375,25.878906,20.507812,44.433594,-14.160156,1.347743
344,29.785156,31.250000,43.457031,25.878906,-18.066406,1.351649
345,32.714844,39.062500,29.296875,11.230469,-33.691406,1.355555
346,20.996094,35.644531,19.042969,20.019531,-24.414062,1.359461
347,20.996094,29.296875,8.789062,9.765625,12.207031,1.363368
348,20.996094,32.226562,2.929688,10.742188,-0.976562,1.360506
349,17.578125,37.109375,6.835938,22.460938,-20.507812,1.364412
350,19.042969,36.621094,19.531250,29.785156,-27.832031,1.368319
351,12.695312,29.785156,39.062500,23.925781,6.835938,1.372225
352,9.765625,23.437500,37.109375,19.042969,46.875000,1.376131
353,8.300781,23.437500,41.503906,24.414062,60.058594,1.380037
354,13.671875,28.320312,41.015625,21.484375,56.152344,1.383944
355,15.625000,29.296875,22.949219,20.507812,13.183594,1.387850
356,13.671875,21.484375,11.230469,16.601562,11.718750,1.391756
357,17.578125,28.808594,22.949219,6.835938,18.554688,1.395662
358,19.042969,38.574219,26.855469,10.253906,14.648438,1.399569
359,18.066406,38.574219,20.507812,20.019531,31.250000,1.403475
360,18.554688,38.085938,23.925781,28.320312,19.042969,1.420534
361,24.414062,34.179688,31.738281,33.203125,-1.953125,1.424441
362,23.925781,26.367188,31.738281,24.902344,-7.812500,1.428347
363,20.019531,26.367188,26.855469,28.320312,14.648438,1.432253
364,13.183594,28.808594,36.132812,48.339844,10.253906,1.436159
365,4.882812,21.972656,25.390625,31.250000,-13.671875,1.440066
366,9.277344,24.414062,13.671875,4.394531,3.906250,1.443972
367,12.207031,38.085938,19.531250,25.878906,29.296875,1.447878
368,6.835938,39.062500,19.531250,30.273438,46.875000,1.451784
369,15.136719,28.320312,20.507812,17.089844,9.277344,1.455691
370,23.437500,28.320312,25.390625,28.320312,-0.976562,1.459597
371,22.460938,34.667969,27.343750,37.597656,16.113281,1.463503
372,36.621094,38.574219,20.996094,46.875000,39.062500,1.460490
373,34.179688,35.156250,13.183594,51.269531,48.828125,1.464396
374,23.925781,29.296875,16.113281,44.433594,48.828125,1.468302
375,23.437500,24.414062,21.484375,28.320312,29.785156,1.472209
376,15.625000,22.949219,27.343750,17.089844,39.062500,1.476115
377,11.230469,26.367188,32.226562,7.324219,101.562500,1.480021
378,12.695312,27.343750,21.972656,19.531250,68.359375,1.483927
379,13.183594,29.785156,12.695312,22.460938,1.464844,1.487834
380,17.578125,31.250000,15.625000,10.253906,26.367188,1.491740
381,19.531250,30.273438,19.042969,16.601562,12.695312,1.495646
382,20.019531,34.179688,20.507812,23.925781,-9.277344,1.499552
383,20.507812,36.132812,5.371094,29.296875,45.410156,1.503459
384,18.066406,26.855469,16.601562,29.296875,64.941406,1.500115
385,20.507812,25.390625,25.878906,21.972656,43.457031,1.504021
386,29.296875,32.714844,15.625000,21.972656,10.742188,1.507927
387,25.878906,28.320312,15.625000,18.554688,-27.343750,1.511833
388,24.414062,25.878906,-2.441406,27.832031,-29.296875,1.515740
389,29.296875,34.179688,-5.859375,33.203125,-2.441406,1.519646
390,26.367188,32.226562,30.273438,21.484375,5.371094,1.523552
391,28.320312,30.273438,41.992188,25.390625,6.347656,1.527458
392,29.296875,33.203125,27.832031,28.808594,19.042969,1.531365
393,26.367188,26.367188,26.855469,26.367188,-5.371094,1.535271
394,26.855469,24.414062,41.992188,23.925781,-67.871094,1.539177
395,21.972656,25.390625,32.714844,22.460938,-69.335938,1.543083
396,27.343750,31.250000,-5.859375,25.390625,-32.714844,1.559994
397,34.179688,33.203125,2.441406,20.019531,-13.671875,1.563901
398,35.644531,22.460938,36.132812,31.738281,-12.207031,1.567807
399,28.808594,23.437500,38.085938,27.832031,-29.785156,1.571713
400,21.484375,36.621094,45.410156,29.785156,-17.578125,1.575619
401,24.902344,31.738281,34.179688,32.714844,-9.765625,1.579526
402,25.390625,27.343750,26.367188,21.972656,-31.738281,1.583432
403,33.203125,36.621094,35.156250,41.015625,-28.320312,1.587338
404,28.808594,41.992188,14.648438,46.386719,-31.738281,1.591244
405,10.742188,36.621094,6.835938,26.855469,-24.902344,1.595151
406,5.371094,22.460938,28.320312,17.089844,-13.671875,1.599057
407,10.742188,18.554688,41.992188,18.066406,-20.019531,1.602963
408,12.207031,26.855469,40.527344,20.507812,20.507812,1.600494
409,13.183594,27.343750,14.160156,26.855469,52.246094,1.604400
410,22.949219,27.343750,2.441406,44.921875,29.785156,1.608306
411,29.785156,23.925781,22.949219,37.597656,13.671875,1.612213
412,17.089844,22.460938,11.230469,8.789062,22.460938,1.616119
413,9.765625,28.320312,24.902344,15.136719,19.531250,1.620025
414,13.183594,21.972656,43.945312,20.996094,18.066406,1.623931
415,13.671875,19.042969,26.855469,16.113281,12.695312,1.627838
416,14.160156,25.390625,18.066406,16.113281,6.835938,1.631744
417,18.066406,27.832031,14.648438,12.695312,-5.371094,1.635650
418,12.207031,27.343750,18.066406,14.648438,12.695312,1.639556
419,17.578125,26.367188,29.785156,24.414062,27.343750,1.643463
420,23.925781,28.808594,16.601562,31.250000,37.109375,1.639977
421,22.949219,31.250000,3.417969,39.550781,51.269531,1.643883
422,17.578125,30.273438,26.367188,36.132812,26.855469,1.647789
423,14.160156,27.832031,36.132812,30.761719,20.507812,1.651695
424,17.578125,26.367188,28.320312,28.320312,-7.324219,1.655602
425,16.601562,32.226562,27.343750,20.996094,-38.574219,1.659508
426,20.019531,31.738281,37.109375,13.671875,-27.832031,1.663414
427,12.695312,28.320312,26.367188,13.671875,-37.597656,1.667320
428,25.390625,32.714844,10.742188,21.484375,-50.292969,1.671227
429,25.390625,36.132812,14.648438,21.972656,-32.714844,1.675133
430,12.695312,35.156250,34.667969,24.902344,2.929688,1.679039
431,25.390625,34.179688,36.621094,29.785156,13.671875,1.682945
432,28.320312,30.273438,34.179688,25.878906,-4.882812,1.707695
433,31.738281,32.714844,37.597656,29.785156,-4.394531,1.711601
434,42.968750,28.320312,35.644531,24.414062,29.296875,1.715507
435,39.550781,27.832031,27.832031,13.671875,47.363281,1.719414
436,37.597656,36.621094,8.789062,22.460938,11.230469,1.723320
437,34.667969,33.691406,17.089844,20.996094,-5.859375,1.727226
438,22.949219,27.832031,44.433594,16.601562,-17.089844,1.731132
439,22.460938,27.343750,46.875000,28.808594,-58.593750,1.735039
440,20.996094,23.925781,24.902344,48.339844,-76.171875,1.738945
441,24.414062,23.925781,24.414062,40.527344,-55.664062,1.742851
442,23.925781,26.367188,27.343750,14.160156,-98.144531,1.746757
443,15.625000,32.714844,23.437500,10.742188,-111.816406,1.750664
444,11.230469,30.761719,18.554688,26.367188,-53.222656,1.780164
445,20.019531,25.390625,13.183594,35.156250,-15.625000,1.784071
446,19.042969,19.042969,18.554688,28.808594,-16.113281,1.787977
447,16.601562,19.042969,34.179688,34.179688,2.441406,1.791883
448,25.878906,26.855469,36.621094,40.527344,-21.972656,1.795789
449,20.996094,25.878906,26.855469,36.132812,-40.527344,1.799696
450,13.183594,25.878906,20.019531,40.527344,-23.437500,1.803602
451,4.882812,30.761719,23.925781,38.085938,-16.601562,1.807508
452,18.554688,28.808594,10.253906,28.320312,-1.953125,1.811414
453,14.648438,20.996094,-5.371094,26.855469,-55.175781,1.815321
454,-2.441406,26.367188,16.113281,27.832031,-45.898438,1.819227
455,6.835938,31.250000,25.390625,25.390625,14.648438,1.823133
456,11.718750,31.250000,27.343750,24.414062,8.789062,1.785594
457,6.835938,34.667969,30.273438,20.507812,9.277344,1.789500
458,10.253906,33.203125,21.484375,20.019531,35.156250,1.793406
459,8.789062,26.855469,3.417969,27.832031,32.226562,1.797313
460,10.742188,26.855469,-8.300781,20.507812,35.156250,1.801219
461,9.277344,28.320312,5.371094,12.695312,41.992188,1.805125
462,-0.976562,30.273438,13.671875,5.371094,-1.953125,1.809031
463,-0.488281,37.597656,7.324219,7.324219,-15.625000,1.812938
464,5.859375,38.085938,0.000000,15.625000,-20.507812,1.816844
465,10.742188,29.785156,4.882812,7.324219,-34.667969,1.820750
466,10.742188,30.761719,18.066406,20.507812,-15.625000,1.824656
467,19.042969,38.085938,9.765625,25.390625,14.160156,1.828563
468,20.019531,41.503906,-12.207031,21.484375,5.371094,1.840476
469,15.136719,35.156250,5.859375,17.089844,-1.464844,1.844382
470,21.484375,32.714844,26.855469,13.183594,28.808594,1.848288
471,22.949219,35.644531,26.367188,27.343750,24.902344,1.852194
472,26.367188,37.597656,25.878906,31.250000,7.812500,1.856101
473,27.343750,37.597656,1.953125,22.460938,-13.183594,1.860007
474,23.925781,32.226562,-9.765625,21.972656,-34.179688,1.863913
475,19.042969,30.761719,17.089844,21.484375,-18.554688,1.867819
476,16.601562,27.832031,31.738281,21.972656,-10.253906,1.871726
477,31.250000,28.808594,22.949219,29.296875,12.207031,1.875632
478,40.527344,37.597656,9.277344,31.250000,53.710938,1.879538
479,38.574219,40.039062,17.089844,28.320312,13.671875,1.883444
480,31.250000,33.203125,26.855469,32.226562,11.718750,1.880267
481,30.761719,31.738281,23.437500,31.738281,32.226562,1.884173
482,29.785156,33.691406,13.671875,25.390625,25.390625,1.888079
483,41.015625,35.156250,19.531250,41.992188,43.945312,1.891986
484,46.386719,33.203125,5.859375,52.734375,25.878906,1.895892
485,23.437500,25.390625,0.488281,40.039062,-5.371094,1.899798
486,20.019531,15.136719,41.015625,31.738281,-16.601562,1.903704
487,24.414062,16.601562,50.292969,30.761719,25.390625,1.907611
488,27.832031,21.972656,26.367188,28.808594,30.761719,1.911517
489,33.691406,17.578125,27.343750,18.066406,-14.160156,1.915423
490,24.902344,24.902344,26.855469,17.578125,-0.488281,1.919329
491,16.113281,30.273438,14.648438,26.367188,4.882812,1.923236
492,7.324219,25.878906,22.460938,12.207031,24.902344,1.922298
493,12.695312,26.367188,3.906250,6.347656,15.625000,1.926205
494,11.230469,29.785156,9.765625,20.996094,17.089844,1.930111
495,10.253906,29.296875,23.925781,23.437500,66.406250,1.934017
496,13.671875,25.878906,1.953125,20.507812,41.015625,1.937923
497,11.718750,29.296875,-2.929688,16.113281,15.625000,1.941830
498,10.742188,32.714844,12.695312,8.300781,36.621094,1.945736
499,15.625000,32.226562,23.925781,8.300781,33.691406,1.949642
500,17.089844,32.226562,20.507812,10.253906,31.250000,1.953548
501,11.230469,21.484375,5.371094,10.742188,46.875000,1.957455
502,20.019531,14.160156,22.949219,13.183594,22.460938,1.961361
503,10.253906,23.925781,37.597656,8.789062,-12.695312,1.965267
504,4.394531,33.203125,32.226562,13.183594,-10.253906,1.981488
505,11.718750,32.714844,28.320312,26.367188,3.417969,1.985394
506,9.277344,34.667969,20.996094,20.507812,-14.648438,1.989301
507,18.066406,41.015625,17.578125,10.742188,-14.648438,1.993207
508,21.484375,42.480469,6.835938,9.765625,13.183594,1.997113
509,10.253906,32.226562,23.437500,19.531250,-14.160156,2.001019
510,9.765625,31.738281,43.945312,31.738281,-8.789062,2.004926
511,20.507812,40.039062,2.929688,32.226562,34.667969,2.008832
512,20.019531,32.226562,-10.742188,21.972656,49.804688,2.012738
513,18.066406,32.226562,38.085938,13.183594,41.015625,2.016644
514,20.996094,24.414062,47.851562,18.066406,-2.929688,2.020551
515,27.832031,18.066406,44.921875,21.484375,-7.324219,2.024457
516,17.578125,30.761719,27.343750,21.972656,-6.347656,2.019868
517,12.695312,30.273438,-1.953125,34.667969,-1.464844,2.023774
518,14.160156,25.878906,5.371094,26.855469,26.367188,2.027680
519,13.671875,23.437500,26.367188,16.113281,-23.925781,2.031587
520,24.414062,17.089844,34.667969,29.785156,-24.902344,2.035493
521,29.785156,23.437500,27.832031,35.156250,4.882812,2.039399
522,30.273438,34.179688,25.878906,35.156250,15.136719,2.043305
523,30.273438,38.574219,21.972656,33.203125,41.992188,2.047212
524,33.691406,36.621094,23.437500,19.531250,33.691406,2.051118
525,35.156250,29.785156,35.644531,26.367188,18.554688,2.055024
526,34.667969,27.832031,29.785156,37.109375,51.757812,2.058930
527,28.320312,23.925781,30.273438,38.085938,44.921875,2.062837
528,28.320312,25.878906,20.019531,45.898438,21.972656,2.079880
529,32.714844,32.714844,-1.464844,34.179688,30.761719,2.083786
530,33.691406,31.738281,9.765625,17.089844,33.203125,2.087692
531,30.761719,35.644531,41.015625,22.949219,39.062500,2.091598
532,33.691406,35.644531,41.992188,16.113281,6.835938,2.095505
533,41.015625,32.714844,26.855469,19.531250,-1.464844,2.099411
534,34.667969,34.179688,16.601562,21.972656,8.789062,2.103317
535,41.015625,42.480469,18.554688,29.296875,-30.273438,2.107223
536,41.015625,43.457031,6.347656,41.015625,0.976562,2.111130
537,35.644531,37.109375,-0.976562,35.156250,40.039062,2.115036
538,46.386719,32.226562,39.550781,40.527344,52.734375,2.118942
539,46.386719,19.531250,39.062500,40.527344,45.410156,2.122848
540,27.343750,25.390625,16.601562,34.667969,15.625000,2.120031
541,30.273438,34.667969,4.882812,34.179688,-2.929688,2.123937
542,27.343750,39.550781,12.695312,17.578125,14.160156,2.127843
543,22.949219,43.457031,30.761719,10.253906,36.132812,2.131750
544,24.414062,38.574219,22.460938,21.484375,10.742188,2.135656
545,18.554688,33.203125,12.207031,21.484375,-7.324219,2.139562
546,13.671875,27.343750,17.578125,18.066406,5.859375,2.143468
547,10.253906,27.343750,15.625000,21.972656,25.390625,2.147375
548,10.742188,32.714844,25.390625,23.437500,15.136719,2.151281
549,9.765625,24.414062,28.320312,17.578125,2.929688,2.155187
550,-0.976562,11.230469,11.230469,25.878906,2.441406,2.159093
551,-0.488281,19.042969,-13.183594,41.992188,15.625000,2.163000
552,3.417969,26.367188,-9.277344,24.414062,-13.671875,2.160269
553,16.113281,25.390625,30.761719,-1.953125,21.972656,2.164175
554,20.996094,25.878906,48.339844,4.394531,36.132812,2.168081
555,7.812500,26.855469,41.503906,17.089844,-11.230469,2.171987
556,6.347656,27.343750,27.832031,28.320312,-10.253906,2.175894
557,5.371094,22.949219,19.042969,18.066406,-13.671875,2.179800
558,7.324219,22.460938,13.671875,9.277344,-8.300781,2.183706
559,9.277344,26.367188,11.718750,17.089844,-3.906250,2.187612
560,0.976562,29.296875,15.136719,20.019531,-16.113281,2.191519
561,-0.976562,21.484375,18.554688,21.484375,-20.996094,2.195425
562,5.859375,13.671875,8.300781,20.019531,5.859375,2.199331
563,15.625000,21.484375,12.695312,27.832031,43.945312,2.203237
564,25.878906,35.156250,18.066406,34.667969,40.527344,2.227734
565,29.785156,42.480469,19.531250,30.273438,2.441406,2.231640
566,20.019531,37.109375,25.878906,26.855469,8.789062,2.235547
567,15.136719,36.621094,26.367188,31.738281,64.453125,2.239453
568,14.160156,35.644531,14.648438,34.667969,59.570312,2.243359
569,14.648438,28.320312,-2.441406,28.808594,25.878906,2.247265
570,17.089844,24.902344,9.765625,23.437500,-0.976562,2.251172
571,14.160156,20.996094,18.554688,23.437500,-17.578125,2.255078
572,18.554688,23.437500,16.601562,24.902344,38.574219,2.258984
573,16.113281,29.785156,21.484375,42.480469,77.148438,2.262890
574,20.019531,36.621094,13.671875,48.828125,31.250000,2.266797
575,29.296875,37.597656,14.160156,39.062500,-5.371094,2.270703
576,30.761719,31.250000,20.996094,29.296875,13.671875,2.273252
577,15.136719,34.667969,34.179688,20.996094,36.132812,2.277158
578,-0.976562,31.250000,37.109375,5.371094,30.273438,2.281065
579,3.417969,22.949219,28.320312,6.347656,10.742188,2.284971
580,2.929688,23.925781,18.554688,26.367188,-23.925781,2.288877
581,-7.812500,15.136719,9.277344,26.855469,-8.300781,2.292783
582,2.441406,9.277344,15.136719,13.671875,20.996094,2.296690
583,2.929688,12.695312,20.996094,16.113281,32.226562,2.300596
584,-18.066406,12.207031,12.695312,7.812500,58.105469,2.304502
585,-25.878906,10.742188,14.160156,5.371094,29.296875,2.308408
586,-16.113281,15.136719,13.183594,28.808594,17.089844,2.312315
587,-5.859375,21.484375,19.042969,26.367188,37.109375,2.316221
588,-1.464844,16.113281,33.691406,16.601562,58.593750,2.331704
589,5.859375,21.484375,29.296875,25.390625,70.800781,2.335611
590,1.953125,20.019531,12.207031,26.855469,27.343750,2.339517
591,-0.488281,5.859375,9.277344,19.531250,14.648438,2.343423
592,-6.835938,13.183594,15.136719,6.835938,34.667969,2.347329
593,-6.347656,22.949219,16.113281,2.441406,21.972656,2.351236
594,-1.953125,24.902344,12.207031,6.835938,12.207031,2.355142
595,1.464844,21.972656,10.253906,12.695312,19.531250,2.359048
596,3.417969,16.113281,29.296875,20.996094,-10.253906,2.362954
597,3.906250,18.554688,36.132812,22.949219,9.277344,2.366861
598,15.625000,27.832031,28.808594,25.390625,70.312500,2.370767
599,12.207031,22.949219,30.761719,39.062500,77.148438,2.374673
600,3.417969,14.648438,15.625000,27.832031,47.851562,2.371703
601,11.718750,15.136719,4.394531,10.742188,13.671875,2.375610
602,15.625000,23.925781,26.367188,11.230469,55.175781,2.379516
603,9.277344,23.437500,42.480469,9.765625,64.941406,2.383422
604,4.394531,22.460938,39.062500,4.882812,34.667969,2.387328
605,15.136719,32.226562,26.367188,6.347656,27.832031,2.391235
606,21.972656,34.179688,17.089844,13.183594,-22.949219,2.395141
607,22.460938,20.019531,30.273438,14.648438,-46.875000,2.399047
608,12.207031,15.625000,37.109375,22.949219,-23.437500,2.402953
609,4.394531,29.785156,4.394531,26.367188,4.882812,2.406860
610,18.066406,32.714844,0.488281,24.902344,26.855469,2.410766
611,25.878906,26.367188,19.531250,35.156250,10.742188,2.414672
612,37.597656,32.714844,18.554688,38.085938,-26.855469,2.416303
613,39.062500,37.109375,24.902344,20.019531,-20.019531,2.420209
614,25.878906,24.902344,17.578125,14.648438,-6.347656,2.424115
615,35.156250,21.484375,24.902344,21.972656,-16.601562,2.428021
616,28.320312,22.460938,25.390625,17.578125,-30.761719,2.431928
617,15.136719,21.972656,13.671875,32.226562,-45.410156,2.435834
618,15.625000,22.949219,34.179688,26.367188,-27.343750,2.439740
619,28.808594,35.156250,45.898438,30.761719,-19.531250,2.443646
620,29.785156,40.527344,30.273438,38.085938,-8.789062,2.447553
621,24.414062,21.484375,20.996094,15.136719,-10.742188,2.451459
622,24.414062,21.972656,33.691406,7.812500,-20.507812,2.455365
623,25.390625,29.296875,34.179688,19.042969,13.671875,2.459271
624,18.066406,33.691406,20.507812,26.367188,17.578125,2.455636
625,12.695312,37.109375,9.765625,14.648438,13.671875,2.459542
626,10.742188,30.761719,24.902344,16.113281,42.968750,2.463449
627,6.347656,23.925781,23.925781,18.554688,66.406250,2.467355
628,13.671875,26.855469,7.324219,15.625000,38.085938,2.471261
629,13.671875,29.296875,11.718750,26.367188,-20.507812,2.475167
630,9.765625,30.273438,21.484375,25.878906,-7.324219,2.479074
631,6.835938,31.250000,30.761719,26.367188,41.503906,2.482980
632,14.160156,24.414062,28.808594,32.226562,29.785156,2.486886
633,20.507812,23.925781,24.902344,25.878906,-0.488281,2.490792
634,2.441406,26.855469,10.742188,22.949219,17.578125,2.494699
635,5.859375,27.343750,22.460938,23.925781,21.484375,2.498605
636,20.019531,22.949219,28.320312,24.902344,-18.554688,2.515533
637,16.601562,20.019531,30.273438,16.601562,-41.992188,2.519439
638,8.300781,21.972656,38.085938,18.066406,28.808594,2.523345
639,7.324219,22.460938,23.437500,28.320312,57.128906,2.527252
640,18.066406,33.203125,4.394531,27.832031,33.691406,2.531158
641,13.183594,39.062500,17.578125,21.972656,18.554688,2.535064
642,12.207031,30.273438,23.925781,18.066406,14.160156,2.538970
643,8.300781,19.531250,20.996094,31.250000,26.367188,2.542877
644,5.371094,23.437500,39.062500,19.042969,22.949219,2.546783
645,10.742188,31.250000,33.691406,7.324219,11.230469,2.550689
646,15.136719,32.226562,25.878906,15.625000,-9.765625,2.554595
647,15.136719,30.273438,30.761719,15.136719,6.835938,2.558502
648,8.789062,20.996094,32.226562,23.925781,20.996094,2.555222
649,8.789062,17.089844,8.789062,31.250000,0.488281,2.559128
650,11.230469,18.066406,3.906250,22.949219,14.160156,2.563034
651,13.671875,20.019531,18.554688,16.113281,60.546875,2.566941
652,19.042969,25.878906,23.437500,18.066406,81.542969,2.570847
653,21.484375,28.808594,34.179688,20.019531,78.613281,2.574753
654,20.507812,35.156250,32.226562,18.066406,57.128906,2.578659
655,12.207031,37.109375,21.972656,13.183594,64.941406,2.582566
656,17.089844,33.203125,25.390625,25.878906,47.851562,2.586472
657,24.902344,32.714844,30.761719,28.808594,-4.394531,2.590378
658,20.996094,27.832031,4.394531,4.394531,-7.812500,2.594284
659,26.367188,20.507812,7.324219,6.835938,37.109375,2.598191
660,22.460938,20.996094,29.785156,20.507812,52.734375,2.595076
661,18.554688,24.902344,22.460938,17.578125,60.546875,2.598982
662,20.019531,25.390625,24.902344,20.507812,43.945312,2.602888
663,22.460938,28.320312,31.250000,26.855469,28.320312,2.606794
664,26.855469,34.667969,17.578125,24.414062,22.949219,2.610701
665,25.878906,32.226562,21.484375,27.343750,45.898438,2.614607
666,20.019531,32.226562,41.992188,26.855469,58.593750,2.618513
667,24.414062,34.667969,31.250000,20.507812,33.691406,2.622419
668,23.925781,28.320312,20.507812,18.066406,16.113281,2.626326
669,12.695312,31.250000,35.644531,23.437500,7.324219,2.630232
670,10.253906,37.109375,24.902344,28.808594,18.066406,2.634138
671,18.066406,28.808594,7.812500,22.460938,16.601562,2.638044
672,18.066406,24.902344,5.859375,17.578125,11.718750,2.655716
673,21.484375,27.832031,20.019531,21.484375,5.371094,2.659622
674,18.066406,25.878906,33.203125,27.832031,12.207031,2.663528
675,26.855469,23.925781,32.714844,29.785156,13.671875,2.667435
676,38.574219,29.296875,24.414062,21.972656,16.601562,2.671341
677,30.273438,30.761719,8.789062,19.042969,21.972656,2.675247
678,34.667969,22.949219,13.183594,22.949219,41.015625,2.679153
679,28.320312,26.367188,26.367188,17.578125,21.972656,2.683060
680,12.207031,27.832031,31.738281,18.066406,29.296875,2.686966
681,17.089844,28.320312,23.925781,30.761719,83.007812,2.690872
682,11.230469,25.390625,17.578125,26.855469,91.796875,2.694778
683,1.464844,15.625000,20.019531,15.136719,40.527344,2.698685
684,15.136719,22.460938,29.296875,17.578125,35.644531,2.694996
685,20.996094,24.902344,26.855469,12.207031,40.527344,2.698902
686,15.625000,20.507812,-2.441406,0.488281,20.996094,2.702809
687,28.808594,26.855469,-14.648438,11.718750,26.855469,2.706715
688,41.015625,28.320312,20.996094,15.136719,-2.929688,2.710621
689,38.085938,25.390625,26.855469,8.300781,-11.230469,2.714527
690,21.484375,24.414062,7.324219,14.648438,11.718750,2.718434
691,16.113281,28.320312,23.925781,18.066406,27.343750,2.722340
692,21.972656,28.320312,31.250000,16.601562,24.902344,2.726246
693,16.113281,23.925781,13.183594,20.996094,-19.531250,2.730152
694,15.625000,24.414062,10.253906,22.949219,-41.015625,2.734059
695,20.507812,26.367188,25.878906,29.785156,-12.695312,2.737965
696,18.554688,24.902344,29.296875,33.691406,11.230469,2.736228
697,15.625000,22.949219,21.484375,27.832031,9.277344,2.740134
698,21.484375,24.414062,11.718750,30.273438,-6.835938,2.744040
699,21.972656,21.484375,22.949219,28.320312,-4.882812,2.747947
700,17.578125,25.878906,25.878906,30.273438,-2.441406,2.751853
701,25.390625,30.273438,17.089844,40.527344,33.203125,2.755759
702,28.320312,20.996094,35.156250,40.039062,66.894531,2.759665
703,23.925781,19.531250,35.644531,35.644531,35.644531,2.763572
704,30.761719,29.785156,32.226562,36.132812,-17.089844,2.767478
705,30.761719,36.621094,32.226562,39.550781,-18.066406,2.771384
706,26.855469,32.226562,11.230469,32.226562,0.488281,2.775290
707,24.902344,23.437500,-6.835938,29.296875,15.625000,2.779197
708,24.902344,29.785156,-10.253906,41.503906,28.808594,2.789953
709,29.296875,35.644531,14.160156,33.203125,4.882812,2.793859
710,28.320312,29.785156,31.250000,22.460938,-19.531250,2.797765
711,34.667969,29.785156,30.761719,24.414062,-19.042969,2.801672
712,32.714844,34.179688,13.183594,26.855469,-23.925781,2.805578
713,33.691406,36.621094,4.394531,24.902344,-32.226562,2.809484
714,32.226562,29.785156,18.066406,13.183594,-25.390625,2.813390
715,19.042969,23.437500,23.925781,17.578125,-42.480469,2.817297
716,23.925781,23.925781,18.554688,30.273438,-21.484375,2.821203
717,33.691406,27.832031,8.789062,29.785156,-2.929688,2.825109
718,33.203125,36.132812,10.253906,26.855469,-6.347656,2.829015
719,36.132812,38.574219,5.371094,21.972656,6.347656,2.832922
720,33.203125,38.085938,21.484375,23.925781,29.296875,2.872918
721,25.878906,35.644531,26.855469,29.785156,23.925781,2.876825
722,30.761719,35.156250,10.253906,21.972656,27.343750,2.880731
723,35.156250,33.691406,26.367188,20.507812,80.078125,2.884637
724,30.273438,29.296875,26.855469,26.367188,83.984375,2.888543
725,27.343750,27.832031,-2.441406,23.925781,64.453125,2.892450
726,18.554688,24.414062,1.464844,20.996094,44.433594,2.896356
727,7.324219,26.855469,10.742188,14.648438,39.550781,2.900262
728,21.484375,37.597656,18.554688,9.277344,24.414062,2.904168
729,30.273438,38.085938,28.808594,11.230469,25.878906,2.908075
730,22.460938,29.785156,21.484375,23.437500,29.296875,2.911981
731,17.578125,21.972656,14.648438,25.390625,20.507812,2.915887
732,29.296875,27.343750,15.136719,26.855469,44.433594,2.880815
733,41.503906,34.667969,23.925781,40.527344,42.480469,2.884721
734,29.785156,37.597656,21.972656,40.527344,-11.230469,2.888628
735,30.761719,34.667969,13.183594,35.644531,-2.441406,2.892534
736,38.574219,30.761719,20.019531,31.738281,16.601562,2.896440
737,28.320312,34.667969,14.160156,26.367188,31.738281,2.900346
738,26.367188,38.085938,-1.464844,19.531250,25.390625,2.904253
739,22.460938,25.878906,15.625000,19.531250,6.347656,2.908159
740,21.484375,21.484375,41.503906,20.019531,43.945312,2.912065
741,23.437500,29.296875,23.925781,18.554688,62.500000,2.915971
742,22.460938,37.597656,15.625000,24.902344,58.593750,2.919878
743,23.925781,37.597656,26.855469,28.808594,55.175781,2.923784
744,24.414062,32.226562,13.183594,48.339844,13.671875,2.936297
745,36.132812,28.808594,14.160156,38.574219,20.996094,2.940203
746,30.273438,26.855469,35.644531,16.113281,46.386719,2.944109
747,31.250000,34.179688,36.132812,27.343750,39.062500,2.948015
748,40.527344,39.550781,32.714844,24.902344,28.320312,2.951922
749,29.785156,31.250000,23.925781,37.597656,28.320312,2.955828
750,26.367188,25.390625,6.347656,43.945312,-18.066406,2.959734
751,32.226562,23.437500,17.089844,20.507812,-31.250000,2.963640
752,26.855469,19.042969,38.574219,17.089844,9.277344,2.967547
753,29.296875,26.855469,38.085938,38.085938,23.437500,2.971453
754,31.738281,34.667969,22.949219,51.269531,11.230469,2.975359
755,23.925781,31.250000,15.625000,35.644531,10.253906,2.979265
756,20.507812,27.343750,23.437500,23.925781,0.976562,2.969961
757,19.531250,29.785156,29.296875,27.343750,-7.324219,2.973867
758,37.597656,32.714844,10.742188,33.691406,28.808594,2.977773
759,36.132812,28.320312,7.812500,41.015625,55.175781,2.981679
760,23.925781,27.832031,27.832031,34.179688,71.777344,2.985586
761,32.226562,30.761719,20.019531,28.320312,67.871094,2.989492
762,30.761719,27.832031,19.042969,35.644531,43.945312,2.993398
763,27.343750,27.832031,30.761719,39.062500,12.695312,2.997304
764,21.484375,34.179688,21.484375,41.503906,8.300781,3.001211
765,18.066406,36.132812,7.812500,32.226562,21.484375,3.005117
766,24.902344,34.179688,26.367188,23.437500,31.738281,3.009023
767,26.367188,34.179688,22.949219,36.621094,41.992188,3.012929
768,25.878906,33.203125,8.789062,29.785156,25.390625,3.023593
769,19.531250,40.527344,20.996094,8.300781,32.226562,3.027499
770,13.183594,36.132812,27.343750,12.695312,26.367188,3.031405
771,16.601562,28.320312,26.367188,19.531250,-26.367188,3.035312
772,24.414062,35.644531,12.695312,22.460938,-36.132812,3.039218
773,31.738281,35.156250,1.464844,39.550781,8.789062,3.043124
774,22.949219,29.785156,16.113281,37.109375,39.062500,3.047030
775,21.484375,34.179688,17.578125,33.691406,41.015625,3.050937
776,23.437500,34.667969,-4.394531,45.898438,44.433594,3.054843
777,24.902344,34.179688,3.906250,45.410156,52.734375,3.058749
778,29.785156,29.785156,23.437500,30.273438,34.667969,3.062655
779,23.437500,21.972656,22.949219,21.484375,69.824219,3.066562
780,30.761719,29.785156,16.113281,31.250000,88.867188,3.071125
781,17.089844,24.414062,11.718750,34.179688,65.429688,3.075031
782,2.441406,16.113281,20.996094,20.507812,58.593750,3.078938
783,16.113281,26.367188,28.320312,21.972656,65.917969,3.082844
784,14.648438,30.761719,30.761719,32.714844,50.781250,3.086750
785,18.066406,28.320312,16.113281,31.250000,-18.554688,3.090656
786,15.625000,21.484375,13.183594,21.484375,-10.742188,3.094563
787,12.695312,23.437500,26.367188,21.484375,7.812500,3.098469
788,19.042969,27.832031,26.855469,43.457031,-13.183594,3.102375
789,24.414062,25.390625,15.136719,46.875000,-27.343750,3.106281
790,25.390625,22.460938,-5.371094,32.714844,-54.199219,3.110188
791,18.066406,18.554688,20.996094,33.203125,-20.507812,3.114094
792,17.089844,22.460938,40.527344,31.738281,26.855469,3.111055
793,20.507812,27.832031,33.203125,25.390625,53.222656,3.114961
794,11.230469,29.785156,24.902344,8.300781,104.980469,3.118868
795,10.742188,29.785156,23.925781,7.324219,84.960938,3.122774
796,21.972656,24.902344,27.343750,23.925781,54.687500,3.126680
797,22.949219,23.925781,22.949219,27.832031,47.851562,3.130586
798,15.625000,23.925781,16.601562,23.925781,25.390625,3.134493
799,10.742188,29.785156,18.066406,30.761719,3.906250,3.138399
800,4.394531,29.785156,23.437500,28.320312,-18.554688,3.142305
801,16.113281,28.320312,21.484375,9.765625,-23.437500,3.146211
802,27.343750,30.273438,21.484375,0.976562,-18.066406,3.150118
803,16.113281,24.414062,24.902344,8.789062,-2.929688,3.154024
804,12.695312,27.343750,28.808594,13.183594,22.949219,3.156241
805,24.414062,36.132812,20.996094,27.832031,36.621094,3.160147
806,22.949219,35.644531,18.066406,31.250000,31.738281,3.164053
807,14.648438,29.296875,28.320312,13.671875,18.554688,3.167959
808,-0.488281,16.113281,28.808594,7.324219,16.601562,3.171866
809,2.929688,27.832031,37.109375,11.718750,-3.417969,3.175772
810,-11.230469,50.781250,33.203125,-5.371094,-2.441406,3.179678
811,-28.808594,52.734375,22.460938,-29.296875,32.226562,3.183584
812,-30.273438,56.152344,22.949219,-37.109375,19.531250,3.187491
813,-56.152344,58.593750,20.507812,-53.710938,4.882812,3.191397
814,-60.058594,66.894531,19.531250,-71.777344,41.503906,3.195303
815,-75.195312,74.707031,13.183594,-87.402344,34.179688,3.199209
816,-89.843750,75.683594,7.812500,-106.445312,29.785156,3.216341
817,-87.890625,84.960938,12.695312,-114.746094,67.871094,3.220247
818,-105.468750,92.285156,-5.371094,-124.023438,70.800781,3.224154
819,-103.027344,99.609375,-24.902344,-138.671875,62.988281,3.228060
820,-106.445312,105.957031,-7.324219,-147.460938,26.855469,3.231966
821,-119.140625,110.839844,4.394531,-145.996094,9.765625,3.235872
822,-128.417969,115.234375,-4.394531,-149.414062,50.781250,3.239779
823,-131.835938,116.699219,-12.207031,-148.437500,70.312500,3.243685
824,-121.582031,111.816406,-12.207031,-147.949219,27.343750,3.247591
825,-114.746094,110.839844,-11.718750,-154.785156,25.390625,3.251497
826,-119.140625,112.304688,-33.203125,-141.113281,18.066406,3.255404
827,-115.234375,109.375000,-51.757812,-128.906250,44.433594,3.259310
828,-101.562500,112.304688,-48.339844,-136.230469,65.917969,3.250824
829,-104.492188,116.699219,-36.132812,-144.531250,47.851562,3.254730
830,-99.121094,118.164062,-28.808594,-135.253906,45.898438,3.258637
831,-78.613281,112.792969,-40.039062,-121.093750,36.621094,3.262543
832,-63.964844,112.792969,-47.363281,-92.773438,13.671875,3.266449
833,-62.500000,110.839844,-44.921875,-81.542969,16.113281,3.270355
834,-60.058594,98.632812,-59.570312,-81.054688,14.648438,3.274262
835,-29.785156,95.703125,-79.589844,-66.894531,25.390625,3.278168
836,-9.277344,90.332031,-67.871094,-52.246094,0.000000,3.282074
837,-13.183594,89.355469,-56.152344,-35.156250,-26.367188,3.285980
838,-4.394531,91.308594,-47.851562,-16.601562,4.394531,3.289887
839,18.554688,83.007812,-42.968750,-1.953125,-5.859375,3.293793
840,34.179688,79.101562,-42.968750,0.488281,0.976562,3.290416
841,46.875000,76.660156,-47.363281,18.066406,13.183594,3.294322
842,51.269531,71.777344,-47.363281,28.808594,2.441406,3.298228
843,47.851562,66.406250,-34.667969,20.019531,-11.718750,3.302135
844,51.269531,54.199219,-26.367188,27.832031,-22.460938,3.306041
845,60.546875,46.386719,-28.808594,40.527344,-10.253906,3.309947
846,64.453125,42.968750,-30.273438,52.734375,-10.253906,3.313853
847,60.058594,41.015625,-27.343750,61.035156,-10.253906,3.317760
848,80.078125,42.968750,-42.480469,62.988281,-19.531250,3.321666
849,83.984375,36.621094,-45.410156,69.824219,-40.527344,3.325572
850,71.289062,27.343750,-24.414062,64.941406,-2.441406,3.329478
851,73.242188,28.320312,-11.718750,56.152344,24.902344,3.333385
852,74.707031,34.667969,-2.441406,68.359375,-12.207031,3.351071
853,83.496094,30.273438,8.300781,78.613281,-3.417969,3.354978
854,88.867188,25.390625,2.929688,77.636719,10.253906,3.358884
855,84.960938,24.414062,-9.277344,81.054688,10.742188,3.362790
856,88.378906,20.996094,-3.417969,81.054688,11.718750,3.366696
857,93.261719,10.742188,1.953125,84.960938,7.324219,3.370603
858,87.890625,8.789062,5.859375,84.960938,-6.347656,3.374509
859,81.542969,19.531250,-2.929688,76.171875,-14.648438,3.378415
860,77.148438,20.019531,-5.859375,65.429688,-20.996094,3.382321
861,77.148438,15.136719,6.347656,82.031250,-52.246094,3.386228
862,79.101562,12.207031,9.277344,94.726562,-78.613281,3.390134
863,70.312500,11.718750,5.371094,68.847656,-28.808594,3.394040
864,68.847656,10.742188,3.417969,61.035156,42.480469,3.391326
865,79.589844,9.765625,0.488281,67.871094,11.718750,3.395232
866,79.101562,12.207031,2.929688,66.894531,-24.414062,3.399139
867,77.636719,5.859375,9.765625,65.917969,12.207031,3.403045
868,66.894531,6.835938,22.460938,70.312500,15.136719,3.406951
869,58.105469,10.742188,24.414062,70.312500,2.441406,3.410857
870,70.800781,8.789062,24.414062,68.359375,-5.371094,3.414764
871,70.312500,3.417969,18.066406,68.359375,3.906250,3.418670
872,62.988281,-2.929688,1.953125,63.964844,0.976562,3.422576
873,56.152344,0.488281,5.371094,77.148438,-26.855469,3.426482
874,49.316406,8.789062,7.324219,79.589844,-29.785156,3.430389
875,49.316406,12.207031,4.394531,65.429688,-24.414062,3.434295
876,44.921875,7.812500,18.066406,58.593750,-0.976562,3.456203
877,44.921875,7.812500,10.253906,63.964844,4.882812,3.460109
878,54.687500,13.671875,-2.929688,65.429688,-12.207031,3.464016
879,50.781250,13.671875,13.183594,52.246094,1.953125,3.467922
880,40.039062,9.277344,24.414062,53.710938,5.859375,3.471828
881,42.480469,11.718750,27.343750,62.500000,-13.671875,3.475734
882,43.457031,15.625000,8.789062,63.476562,-13.183594,3.479641
883,47.851562,16.601562,4.882812,52.246094,-52.246094,3.483547
884,50.781250,20.019531,28.808594,49.316406,-50.781250,3.487453
885,41.503906,20.507812,17.089844,56.640625,25.878906,3.491359
886,31.738281,12.695312,12.207031,53.222656,35.156250,3.495266
887,32.714844,5.859375,17.578125,38.085938,0.976562,3.499172
888,24.414062,7.324219,14.648438,35.644531,-7.324219,3.495954
889,19.531250,15.625000,19.531250,43.457031,7.812500,3.499860
890,27.832031,20.019531,12.207031,45.410156,-3.417969,3.503766
891,18.066406,22.460938,13.183594,25.878906,-14.160156,3.507673
892,17.578125,23.437500,20.996094,36.621094,22.949219,3.511579
893,6.347656,21.972656,24.902344,46.386719,19.531250,3.515485
894,17.089844,21.972656,12.695312,32.714844,-3.417969,3.519391
895,29.296875,23.925781,-5.859375,33.691406,15.136719,3.523298
896,21.972656,20.507812,1.464844,37.597656,54.199219,3.527204
897,23.925781,17.089844,10.253906,36.132812,27.832031,3.531110
898,22.949219,20.996094,14.648438,35.644531,-32.714844,3.535016
899,18.066406,22.460938,9.765625,30.761719,-16.113281,3.538923
900,12.695312,20.507812,9.277344,20.507812,26.855469,3.536056
901,11.718750,15.136719,10.742188,15.136719,51.269531,3.539962
902,15.625000,8.789062,5.371094,19.531250,60.546875,3.543868
903,19.042969,12.695312,-1.464844,36.621094,25.878906,3.547775
904,18.554688,18.066406,-0.488281,43.945312,23.437500,3.551681
905,11.718750,17.089844,14.648438,20.996094,40.039062,3.555587
906,9.765625,19.531250,22.460938,21.972656,21.972656,3.559493
907,15.136719,18.554688,24.414062,40.527344,18.554688,3.563400
908,15.625000,16.113281,14.648438,37.109375,-22.460938,3.567306
909,19.042969,18.554688,14.648438,29.785156,-28.808594,3.571212
910,15.625000,20.507812,19.042969,35.644531,63.476562,3.575118
911,22.949219,18.066406,10.742188,40.527344,83.007812,3.579025
912,28.320312,19.531250,7.812500,31.738281,7.812500,3.616601
913,22.949219,16.601562,1.953125,25.878906,-39.062500,3.620507
914,20.507812,13.183594,2.929688,38.574219,-13.671875,3.624413
915,22.949219,18.066406,20.019531,49.804688,15.625000,3.628320
916,23.437500,9.765625,30.761719,41.992188,48.828125,3.632226
917,22.460938,9.277344,30.273438,28.808594,32.226562,3.636132
918,13.183594,8.789062,28.808594,22.460938,-49.316406,3.640038
919,9.765625,2.441406,17.089844,27.832031,-48.339844,3.643945
920,22.949219,11.718750,16.601562,30.273438,-32.714844,3.647851
921,13.183594,17.089844,20.996094,20.996094,-8.300781,3.651757
922,7.324219,14.160156,13.671875,28.808594,12.695312,3.655663
923,26.367188,18.554688,16.113281,34.667969,8.300781,3.659570
924,22.949219,21.972656,22.949219,31.250000,15.136719,3.624890
925,21.484375,18.066406,12.695312,37.109375,-12.207031,3.628796
926,25.390625,17.578125,4.882812,34.667969,-29.785156,3.632702
927,20.019531,15.625000,13.183594,35.156250,-8.300781,3.636608
928,21.972656,16.601562,14.160156,36.132812,-5.859375,3.640515
929,21.972656,20.019531,9.277344,36.621094,-26.855469,3.644421
930,16.601562,19.042969,7.812500,32.714844,-33.203125,3.648327
931,18.554688,19.531250,2.441406,22.949219,-25.878906,3.652233
932,27.343750,20.507812,5.859375,28.808594,26.855469,3.656140
933,36.621094,21.972656,7.812500,28.320312,55.664062,3.660046
934,32.226562,21.972656,7.812500,34.179688,27.832031,3.663952
935,13.183594,23.925781,12.207031,43.457031,16.601562,3.667858
936,16.601562,24.414062,21.484375,44.433594,30.761719,3.676466
937,27.343750,21.972656,36.132812,39.062500,22.949219,3.680372
938,27.832031,19.531250,30.761719,34.667969,20.019531,3.684278
939,25.390625,21.484375,23.437500,38.574219,0.000000,3.688184
940,23.437500,20.019531,21.484375,28.808594,-26.855469,3.692091
941,30.273438,15.136719,19.531250,10.253906,-37.597656,3.695997
942,35.644531,20.507812,25.390625,28.808594,-24.902344,3.699903
943,32.714844,27.832031,29.785156,47.363281,20.507812,3.703809
944,26.367188,32.714844,11.718750,32.714844,15.136719,3.707716
945,23.925781,30.273438,13.183594,26.367188,6.347656,3.711622
946,32.226562,29.296875,23.925781,23.437500,52.734375,3.715528
947,17.089844,30.761719,15.136719,20.019531,80.566406,3.719434
948,8.300781,30.273438,21.972656,16.601562,77.148438,3.736764
949,19.042969,31.738281,24.902344,22.460938,78.125000,3.740670
950,20.996094,20.019531,20.507812,29.296875,69.335938,3.744576
951,19.531250,16.113281,15.625000,32.226562,66.406250,3.748482
952,13.183594,24.902344,22.460938,31.250000,73.730469,3.752389
953,10.742188,25.390625,30.761719,22.949219,59.570312,3.756295
954,15.136719,24.414062,25.390625,22.949219,67.382812,3.760201
955,21.972656,28.320312,23.437500,38.085938,80.566406,3.764107
956,28.320312,29.785156,11.230469,41.503906,94.726562,3.768014
957,30.273438,25.878906,7.812500,33.203125,85.937500,3.771920
958,24.414062,25.390625,19.042969,33.691406,71.289062,3.775826
959,19.042969,24.414062,14.648438,37.597656,50.781250,3.779732
960,22.460938,18.066406,13.671875,31.250000,43.945312,3.771030
961,25.878906,16.113281,10.742188,21.972656,67.382812,3.774937
962,25.390625,20.507812,2.929688,23.437500,48.339844,3.778843
963,26.855469,20.507812,11.718750,36.132812,65.917969,3.782749
964,33.203125,19.531250,30.761719,41.992188,73.242188,3.786655
965,29.296875,20.507812,18.066406,41.015625,31.738281,3.790562
966,23.925781,24.414062,3.417969,48.339844,19.531250,3.794468
967,42.480469,28.320312,20.019531,53.710938,32.714844,3.798374
968,48.339844,27.343750,32.226562,43.457031,61.035156,3.802280
969,31.250000,26.855469,23.925781,37.109375,62.988281,3.806187
970,28.320312,26.367188,12.207031,51.757812,36.132812,3.810093
971,28.808594,23.925781,19.042969,53.222656,66.894531,3.813999
972,36.621094,22.949219,10.742188,43.457031,74.218750,3.811086
973,37.109375,20.996094,3.906250,42.968750,69.824219,3.814992
974,29.296875,19.042969,18.554688,39.550781,75.195312,3.818899
975,32.714844,23.925781,33.691406,31.250000,71.289062,3.822805
976,32.226562,24.414062,24.414062,41.503906,77.636719,3.826711
977,33.203125,20.507812,8.789062,49.316406,58.105469,3.830617
978,31.250000,24.414062,11.230469,36.132812,41.015625,3.834524
979,39.062500,25.878906,11.718750,35.644531,12.207031,3.838430
980,33.203125,22.949219,4.882812,38.574219,29.296875,3.842336
981,19.042969,19.042969,2.441406,34.667969,83.984375,3.846242
982,23.437500,17.578125,21.972656,33.203125,60.546875,3.850149
983,15.136719,23.925781,25.390625,31.738281,27.343750,3.854055
984,20.507812,28.320312,10.742188,41.503906,57.617188,3.870909
985,26.855469,28.808594,7.812500,35.644531,51.269531,3.874815
986,26.367188,33.691406,7.812500,20.507812,55.664062,3.878721
987,27.343750,32.226562,-0.488281,27.343750,56.152344,3.882628
988,21.972656,27.343750,8.789062,30.273438,38.085938,3.886534
989,20.507812,23.925781,19.042969,22.949219,16.601562,3.890440
990,29.296875,24.902344,12.207031,34.179688,21.972656,3.894346
991,33.203125,23.925781,16.601562,35.644531,15.625000,3.898253
992,29.296875,21.972656,9.765625,29.296875,-1.464844,3.902159
993,23.925781,27.343750,9.765625,39.550781,21.972656,3.906065
994,27.343750,26.367188,12.207031,34.179688,40.527344,3.909971
995,24.902344,23.437500,2.441406,10.253906,64.941406,3.913878
996,22.949219,27.343750,0.000000,10.253906,68.359375,3.911640
997,27.343750,28.808594,2.929688,28.808594,46.386719,3.915546
998,28.808594,30.761719,10.253906,42.968750,57.128906,3.919453
999,26.367188,29.296875,17.089844,32.714844,89.843750,3.923359
1000,25.390625,28.320312,11.718750,18.066406,61.523438,3.927265
1001,33.203125,25.878906,3.906250,13.183594,24.414062,3.931171
1002,30.273438,24.902344,2.441406,14.160156,46.875000,3.935078
1003,28.320312,25.878906,-2.929688,22.460938,39.550781,3.938984
1004,30.761719,22.460938,0.000000,19.531250,36.132812,3.942890
1005,24.902344,20.019531,11.230469,10.742188,53.710938,3.946796
1006,24.414062,23.925781,1.464844,14.160156,17.089844,3.950703
1007,30.273438,34.667969,-1.953125,33.203125,5.371094,3.954609
1008,19.042969,36.621094,23.925781,18.066406,3.906250,3.956115
1009,7.812500,30.761719,34.179688,4.882812,19.531250,3.960022
1010,18.554688,24.902344,25.878906,13.671875,17.578125,3.963928
1011,25.390625,23.437500,14.648438,20.019531,-12.695312,3.967834
1012,25.390625,25.878906,9.765625,29.296875,14.160156,3.971740
1013,31.738281,20.019531,9.277344,26.367188,1.464844,3.975647
1014,26.855469,19.531250,19.531250,17.578125,-13.671875,3.979553
1015,13.671875,23.437500,27.343750,17.578125,-0.976562,3.983459
1016,21.972656,22.460938,20.996094,23.437500,-10.742188,3.987365
1017,28.808594,22.949219,25.878906,34.667969,-24.414062,3.991272
1018,26.367188,27.832031,22.460938,31.250000,-13.671875,3.995178
1019,28.320312,30.273438,11.230469,19.042969,20.996094,3.999084
1020,29.296875,25.878906,5.859375,33.691406,17.578125,4.016069
1021,31.738281,34.667969,3.417969,51.269531,28.320312,4.019975
1022,35.644531,32.226562,1.953125,37.109375,33.203125,4.023881
1023,14.160156,19.531250,6.835938,18.554688,2.929688,4.027787
1024,3.417969,24.414062,22.949219,15.625000,2.441406,4.031694
1025,23.437500,26.855469,27.832031,13.671875,-2.929688,4.035600
1026,22.949219,27.832031,19.531250,12.207031,-0.976562,4.039506
1027,11.718750,28.808594,21.484375,17.089844,11.718750,4.043412
1028,24.414062,27.832031,25.390625,28.808594,13.671875,4.047319
1029,33.203125,29.296875,-5.859375,31.250000,-11.718750,4.051225
1030,32.226562,35.644531,-12.207031,37.597656,-3.906250,4.055131
1031,35.644531,31.250000,14.648438,34.179688,-5.371094,4.059037
1032,32.226562,25.390625,18.066406,23.437500,-13.183594,4.056017
1033,27.832031,29.296875,20.996094,27.343750,7.812500,4.059923
1034,14.648438,31.738281,26.367188,23.925781,35.156250,4.063830
1035,11.718750,27.832031,21.972656,17.578125,29.296875,4.067736
1036,19.042969,24.414062,12.207031,28.320312,54.199219,4.071642
1037,22.460938,26.367188,-9.277344,32.714844,64.941406,4.075548
1038,21.972656,27.343750,1.953125,25.390625,22.460938,4.079455
1039,8.789062,24.414062,20.507812,35.644531,15.625000,4.083361
1040,3.906250,25.390625,23.925781,31.738281,36.132812,4.087267
1041,-3.417969,30.273438,22.949219,16.601562,23.925781,4.091173
1042,7.812500,27.343750,9.765625,10.742188,22.460938,4.095080
1043,14.160156,20.996094,17.089844,6.347656,63.964844,4.098986
1044,9.765625,20.507812,20.996094,13.671875,84.472656,4.096426
1045,17.578125,22.460938,14.160156,15.136719,28.808594,4.100332
1046,18.066406,24.414062,0.488281,18.066406,-13.671875,4.104239
1047,24.902344,32.714844,0.976562,25.878906,22.460938,4.108145
1048,16.601562,37.597656,21.972656,14.160156,48.339844,4.112051
1049,10.742188,32.226562,20.996094,19.531250,14.160156,4.115957
1050,11.230469,30.273438,7.812500,15.136719,-26.367188,4.119864
1051,3.417969,31.250000,3.906250,8.789062,-19.531250,4.123770
1052,7.812500,27.343750,3.906250,13.671875,-35.644531,4.127676
1053,14.648438,29.296875,12.695312,2.929688,-29.785156,4.131582
1054,9.765625,33.691406,8.300781,-7.812500,0.000000,4.135489
1055,1.464844,28.320312,7.812500,1.464844,-3.906250,4.139395
1056,11.230469,27.832031,12.207031,19.531250,-38.574219,4.156268
1057,31.250000,38.574219,18.066406,0.976562,-48.339844,4.160174
1058,11.718750,42.480469,28.808594,-17.578125,-24.902344,4.164080
1059,-29.785156,28.320312,35.644531,-34.179688,-14.648438,4.167986
1060,-35.644531,27.832031,31.738281,-34.179688,-18.066406,4.171893
1061,-38.085938,36.132812,24.414062,-23.437500,-25.390625,4.175799
1062,-56.152344,25.390625,58.105469,-47.363281,-35.156250,4.179705
1063,-65.917969,11.718750,82.031250,-59.570312,-48.828125,4.183611
1064,-74.707031,8.789062,68.847656,-63.964844,-64.453125,4.187518
1065,-96.679688,15.136719,53.222656,-69.335938,-65.429688,4.191424
1066,-105.468750,10.253906,85.449219,-70.312500,-62.500000,4.195330
1067,-125.000000,-1.953125,107.421875,-84.960938,-46.875000,4.199236
1068,-145.019531,0.488281,78.125000,-84.472656,-37.597656,4.191265
1069,-153.320312,-12.207031,126.464844,-96.679688,-54.199219,4.195172
1070,-177.734375,-21.972656,145.019531,-113.769531,-38.574219,4.199078
1071,-176.757812,-17.089844,126.953125,-116.210938,-30.761719,4.202984
1072,-172.851562,-23.925781,138.671875,-112.304688,-60.058594,4.206890
1073,-172.363281,-34.179688,135.742188,-111.328125,-56.152344,4.210797
1074,-157.714844,-33.203125,127.441406,-89.843750,-33.691406,4.214703
1075,-138.671875,-31.250000,117.675781,-64.941406,-38.085938,4.218609
1076,-128.417969,-30.761719,142.578125,-62.988281,-16.601562,4.222515
1077,-115.722656,-32.714844,161.621094,-49.316406,-21.972656,4.226422
1078,-107.421875,-33.691406,170.410156,-32.226562,-43.457031,4.230328
1079,-90.332031,-31.738281,154.785156,-22.460938,-20.507812,4.234234
1080,-72.753906,-30.761719,125.976562,-5.859375,29.296875,4.236152
1081,-50.292969,-28.320312,95.214844,20.019531,25.878906,4.240058
1082,-56.152344,-39.062500,104.492188,15.625000,28.808594,4.243964
1083,-62.011719,-48.828125,121.582031,32.226562,31.250000,4.247870
1084,-32.714844,-40.527344,117.187500,61.035156,3.906250,4.251777
1085,-23.437500,-44.433594,102.539062,49.316406,3.417969,4.255683
1086,-19.042969,-45.898438,93.750000,34.667969,6.835938,4.259589
1087,-13.183594,-42.480469,71.289062,34.667969,18.066406,4.263495
1088,3.417969,-43.457031,78.613281,58.593750,1.464844,4.267402
1089,26.367188,-26.367188,99.121094,84.472656,-4.394531,4.271308
1090,34.667969,-17.578125,64.453125,105.468750,4.394531,4.275214
1091,41.015625,-21.484375,65.917969,99.609375,22.949219,4.279120
1092,53.222656,-20.996094,86.914062,78.125000,56.640625,4.296199
1093,72.753906,-13.183594,90.332031,90.332031,25.878906,4.300105
1094,64.941406,-21.972656,85.449219,91.308594,-4.394531,4.304012
1095,53.222656,-23.925781,48.828125,95.214844,4.882812,4.307918
1096,69.335938,-17.089844,29.785156,104.980469,20.507812,4.311824
1097,80.566406,-17.089844,57.617188,94.238281,19.042969,4.315730
1098,64.453125,-6.347656,56.640625,86.425781,-26.367188,4.319637
1099,56.640625,1.464844,77.148438,91.796875,-22.949219,4.323543
1100,54.199219,-1.464844,85.449219,93.750000,2.929688,4.327449
1101,58.593750,1.953125,69.824219,106.933594,30.761719,4.331355
1102,77.636719,6.835938,41.992188,123.535156,10.253906,4.335262
1103,69.335938,-2.441406,57.617188,112.304688,-19.042969,4.339168
1104,54.199219,-3.417969,88.378906,83.007812,8.300781,4.334984
1105,60.546875,8.300781,65.429688,83.496094,25.878906,4.338890
1106,67.871094,3.906250,51.269531,99.121094,30.273438,4.342797
1107,74.218750,6.347656,69.824219,102.539062,31.250000,4.346703
1108,71.289062,18.554688,73.242188,98.144531,27.832031,4.350609
1109,81.542969,11.718750,37.597656,81.542969,43.945312,4.354515
1110,75.683594,8.789062,33.203125,83.007812,50.781250,4.358422
1111,62.011719,13.183594,66.406250,87.402344,73.730469,4.362328
1112,62.988281,15.625000,49.316406,78.613281,67.382812,4.366234
1113,60.546875,11.718750,41.015625,72.265625,25.390625,4.370140
1114,59.082031,20.019531,83.984375,78.125000,20.507812,4.374047
1115,65.429688,25.878906,82.031250,94.238281,37.597656,4.377953
1116,61.523438,19.531250,95.214844,78.613281,30.273438,4.385909
1117,47.851562,21.972656,106.933594,67.871094,12.695312,4.389815
1118,59.570312,20.507812,84.960938,70.800781,11.230469,4.393721
1119,65.429688,21.972656,86.425781,76.660156,24.414062,4.397627
1120,60.546875,23.925781,72.265625,68.847656,15.625000,4.401534
1121,60.058594,26.855469,62.011719,64.453125,-16.601562,4.405440
1122,49.316406,25.878906,99.609375,61.523438,2.441406,4.409346
1123,46.875000,22.460938,119.628906,58.593750,7.812500,4.413252
1124,55.175781,28.808594,108.886719,66.406250,30.761719,4.417159
1125,66.894531,33.691406,89.843750,55.175781,67.871094,4.421065
1126,48.828125,30.761719,71.777344,53.222656,65.429688,4.424971
1127,41.015625,34.179688,80.566406,68.847656,65.917969,4.428877
1128,42.968750,28.320312,95.214844,56.152344,26.367188,4.436168
1129,38.085938,19.531250,110.839844,38.085938,-7.324219,4.440074
1130,48.339844,28.320312,130.371094,40.527344,7.324219,4.443981
1131,45.410156,28.808594,120.117188,37.109375,31.738281,4.447887
1132,54.687500,28.808594,115.722656,52.246094,40.527344,4.451793
1133,62.011719,28.808594,118.652344,61.035156,23.925781,4.455699
1134,44.433594,25.390625,106.445312,53.222656,0.488281,4.459606
1135,25.878906,28.808594,98.144531,46.386719,26.855469,4.463512
1136,29.296875,32.226562,117.675781,47.363281,66.894531,4.467418
1137,41.992188,24.902344,125.976562,43.945312,70.312500,4.471324
1138,43.945312,16.601562,121.582031,45.898438,32.226562,4.475231
1139,49.804688,18.554688,112.304688,44.433594,42.968750,4.479137
1140,45.898438,26.855469,101.562500,38.085938,76.660156,4.476650
1141,36.132812,26.855469,109.375000,48.828125,70.800781,4.480556
1142,46.875000,30.273438,108.886719,53.710938,69.335938,4.484463
1143,46.875000,34.179688,89.355469,52.246094,89.843750,4.488369
1144,32.714844,30.761719,90.332031,49.804688,113.769531,4.492275
1145,29.296875,23.437500,125.976562,38.574219,90.820312,4.496181
1146,37.109375,24.902344,125.488281,47.851562,65.917969,4.500088
1147,42.480469,30.761719,115.722656,54.687500,63.964844,4.503994
1148,40.527344,26.855469,112.792969,50.781250,57.617188,4.507900
1149,37.109375,27.832031,102.050781,46.875000,32.226562,4.511806
1150,31.738281,27.832031,105.468750,27.343750,39.550781,4.515713
1151,32.714844,30.761719,94.238281,19.042969,58.593750,4.519619
1152,35.156250,27.832031,89.843750,25.390625,69.824219,4.516180
1153,37.109375,24.902344,102.050781,33.691406,82.519531,4.520086
1154,33.691406,27.343750,94.238281,46.875000,62.988281,4.523992
1155,37.109375,23.925781,70.312500,62.988281,21.484375,4.527898
1156,47.851562,24.414062,60.546875,41.015625,62.500000,4.531805
1157,33.691406,30.761719,65.917969,26.367188,99.609375,4.535711
1158,32.714844,32.714844,70.800781,40.527344,71.777344,4.539617
1159,42.968750,35.156250,54.199219,47.363281,57.128906,4.543523
1160,38.085938,32.714844,62.011719,42.480469,24.414062,4.547430
1161,27.832031,26.855469,87.890625,23.925781,19.531250,4.551336
1162,26.855469,29.296875,82.031250,18.066406,51.269531,4.555242
1163,22.460938,32.226562,77.148438,14.160156,31.250000,4.559148
1164,24.902344,36.132812,80.078125,20.996094,3.906250,4.576052
1165,30.273438,36.132812,64.941406,26.855469,44.433594,4.579958
1166,21.484375,31.250000,36.132812,34.179688,58.105469,4.583864
1167,26.367188,30.273438,24.902344,16.601562,21.484375,4.587771
1168,16.601562,28.808594,58.593750,-0.488281,26.855469,4.591677
1169,18.066406,27.832031,89.355469,13.671875,45.898438,4.595583
1170,25.878906,28.808594,72.265625,20.996094,31.250000,4.599489
1171,9.277344,32.226562,53.710938,37.109375,52.246094,4.603396
1172,3.417969,33.203125,68.359375,34.667969,91.796875,4.607302
1173,16.113281,27.343750,73.730469,12.695312,55.664062,4.611208
1174,15.136719,25.390625,58.593750,11.230469,-37.597656,4.615114
1175,7.812500,29.785156,23.925781,21.972656,-50.781250,4.619021
1176,14.648438,38.085938,39.062500,15.136719,-16.601562,4.616204
1177,12.695312,36.132812,65.429688,12.695312,-15.625000,4.620110
1178,6.347656,25.878906,62.988281,8.789062,-12.207031,4.624016
1179,9.765625,27.832031,69.335938,1.953125,-23.437500,4.627922
1180,12.695312,32.226562,57.617188,14.648438,0.000000,4.631829
1181,13.671875,29.296875,43.457031,25.878906,23.437500,4.635735
1182,5.859375,31.738281,25.390625,27.832031,2.441406,4.639641
1183,27.832031,36.621094,36.621094,23.437500,27.343750,4.643547
1184,43.945312,30.761719,70.800781,26.855469,43.945312,4.647454
1185,18.554688,30.761719,56.640625,20.996094,34.667969,4.651360
1186,6.835938,36.132812,31.738281,6.835938,30.761719,4.655266
1187,10.253906,35.644531,53.222656,13.183594,40.039062,4.659172
1188,12.207031,31.738281,67.871094,30.761719,63.964844,4.655124
1189,18.554688,27.832031,48.339844,44.433594,76.171875,4.659030
1190,14.160156,23.437500,39.062500,47.363281,68.359375,4.662937
1191,-3.417969,18.554688,39.062500,36.132812,74.218750,4.666843
1192,7.812500,25.390625,40.527344,17.089844,104.980469,4.670749
1193,3.906250,29.785156,45.410156,20.996094,110.839844,4.674655
1194,-7.324219,24.902344,43.945312,11.230469,73.730469,4.678562
1195,9.277344,27.832031,41.992188,11.718750,31.738281,4.682468
1196,23.925781,30.273438,46.386719,21.972656,20.019531,4.686374
1197,9.277344,21.484375,48.828125,14.160156,25.878906,4.690280
1198,13.671875,20.507812,44.921875,24.414062,19.042969,4.694187
1199,32.226562,27.343750,35.644531,29.785156,27.832031,4.698093
1200,19.531250,29.785156,16.601562,22.460938,32.226562,4.715825
1201,26.855469,29.785156,35.644531,26.367188,40.527344,4.719731
1202,17.089844,26.367188,53.222656,33.203125,45.410156,4.723638
1203,8.300781,27.832031,43.945312,20.507812,21.484375,4.727544
1204,20.996094,30.273438,46.875000,7.324219,-24.414062,4.731450
1205,23.437500,29.296875,31.250000,0.000000,-67.871094,4.735356
1206,21.484375,26.855469,18.554688,-3.417969,-57.128906,4.739263
1207,28.320312,38.574219,11.718750,12.207031,-37.109375,4.743169
1208,34.667969,43.945312,-10.253906,25.390625,-25.390625,4.747075
1209,22.460938,29.785156,1.464844,17.089844,2.929688,4.750981
1210,19.531250,26.367188,21.972656,16.113281,-28.808594,4.754888
1211,16.601562,34.179688,39.062500,30.273438,-56.640625,4.758794
1212,4.394531,32.226562,42.968750,29.296875,-43.945312,4.756178
1213,13.183594,24.902344,31.250000,15.136719,-31.250000,4.760084
1214,17.578125,22.460938,33.203125,16.601562,-26.367188,4.763990
1215,6.835938,20.019531,14.160156,27.832031,-49.316406,4.767896
1216,-8.300781,27.832031,-12.695312,19.042969,-63.476562,4.771803
1217,6.347656,28.808594,5.371094,1.953125,-48.828125,4.775709
1218,41.503906,24.414062,26.855469,4.394531,-55.175781,4.779615
1219,20.996094,25.878906,14.648438,5.371094,-29.296875,4.783521
1220,13.183594,24.414062,9.765625,18.554688,-25.390625,4.787428
1221,20.507812,21.484375,20.507812,33.691406,-43.945312,4.791334
1222,15.625000,21.484375,1.464844,23.925781,-18.066406,4.795240
1223,23.925781,24.414062,-5.371094,13.671875,-22.949219,4.799146
1224,18.066406,24.902344,22.460938,0.976562,-6.835938,4.790605
1225,7.812500,26.367188,20.996094,16.601562,-10.742188,4.794511
1226,24.902344,25.878906,17.578125,30.761719,-6.835938,4.798417
1227,23.437500,25.390625,15.136719,28.808594,12.207031,4.802323
1228,18.554688,24.902344,-6.835938,25.390625,21.484375,4.806230
1229,21.972656,21.484375,-11.230469,19.531250,32.714844,4.810136
1230,17.578125,16.113281,1.953125,20.507812,35.644531,4.814042
1231,18.066406,16.601562,8.300781,16.601562,8.789062,4.817948
1232,18.066406,25.878906,2.929688,24.414062,5.371094,4.821855
1233,21.972656,29.296875,-19.042969,20.019531,-14.648438,4.825761
1234,20.507812,27.832031,7.324219,8.789062,-37.597656,4.829667
1235,22.949219,28.808594,39.062500,20.019531,-0.488281,4.833573
1236,32.226562,29.785156,21.972656,32.714844,-4.394531,4.855757
1237,28.808594,32.226562,7.812500,35.156250,-6.347656,4.859663
1238,32.714844,31.250000,25.390625,30.273438,1.953125,4.863569
1239,22.460938,27.832031,34.179688,22.949219,16.601562,4.867476
1240,-7.812500,23.925781,28.808594,22.460938,8.300781,4.871382
1241,19.042969,26.367188,23.437500,20.507812,-5.859375,4.875288
1242,27.343750,32.714844,29.296875,12.695312,27.832031,4.879194
1243,12.695312,31.738281,20.996094,10.742188,18.554688,4.883101
1244,14.648438,18.066406,11.718750,18.066406,-23.925781,4.887007
1245,10.253906,10.742188,23.437500,32.226562,-12.695312,4.890913
1246,15.136719,34.179688,24.902344,29.296875,-1.464844,4.894819
1247,16.113281,51.757812,28.320312,-0.488281,16.601562,4.898726
1248,-25.390625,41.992188,19.042969,-36.621094,47.851562,4.896159
1249,-63.476562,40.039062,8.789062,-63.476562,36.132812,4.900065
1250,-61.035156,51.757812,13.671875,-78.125000,45.898438,4.903971
1251,-77.636719,60.546875,20.019531,-88.378906,50.781250,4.907878
1252,-103.515625,58.105469,4.394531,-115.234375,-4.882812,4.911784
1253,-113.281250,65.429688,-15.136719,-132.324219,-6.347656,4.915690
1254,-133.789062,77.148438,-7.324219,-168.945312,16.113281,4.919596
1255,-145.019531,93.261719,2.441406,-189.453125,14.160156,4.923503
1256,-165.039062,96.679688,-18.066406,-191.406250,9.765625,4.927409
1257,-167.480469,88.378906,-39.062500,-199.218750,3.417969,4.931315
1258,-173.339844,92.285156,-16.113281,-197.265625,-5.371094,4.935221
1259,-167.968750,105.957031,-15.625000,-205.566406,11.718750,4.939128
1260,-155.761719,112.792969,-46.875000,-211.914062,31.738281,4.956158
1261,-156.738281,111.816406,-54.199219,-206.542969,33.203125,4.960064
1262,-151.367188,116.699219,-46.386719,-209.472656,17.089844,4.963970
1263,-151.855469,118.652344,-52.246094,-193.847656,8.789062,4.967876
1264,-139.160156,116.210938,-61.035156,-180.664062,13.183594,4.971783
1265,-138.183594,117.187500,-62.011719,-178.222656,-2.929688,4.975689
1266,-112.304688,122.070312,-80.566406,-154.785156,6.347656,4.979595
1267,-78.613281,122.558594,-119.140625,-145.996094,-22.949219,4.983501
1268,-74.707031,118.164062,-102.539062,-134.277344,-52.246094,4.987408
1269,-58.593750,107.421875,-72.265625,-113.769531,-49.804688,4.991314
1270,-30.761719,106.445312,-68.847656,-95.214844,-33.203125,4.995220
1271,-13.183594,109.375000,-58.105469,-64.941406,-34.179688,4.999126
1272,-12.695312,96.679688,-53.710938,-53.710938,-41.503906,4.991198
1273,-6.835938,89.355469,-61.035156,-52.734375,-18.554688,4.995104
1274,8.300781,88.867188,-64.453125,-19.042969,-7.324219,4.999011
1275,26.367188,83.496094,-67.382812,7.324219,-6.347656,5.002917
1276,38.085938,74.707031,-68.847656,26.367188,-10.742188,5.006823
1277,60.058594,72.753906,-50.781250,41.992188,-5.859375,5.010729
1278,74.707031,63.476562,-56.152344,47.851562,-2.929688,5.014636
1279,80.566406,51.757812,-61.523438,59.082031,-20.507812,5.018542
1280,81.054688,43.457031,-39.550781,64.453125,-25.390625,5.022448
1281,85.937500,36.132812,-35.644531,61.035156,0.976562,5.026354
1282,98.144531,35.644531,-41.015625,63.964844,-40.527344,5.030261
1283,93.750000,41.015625,-22.949219,82.031250,-80.078125,5.034167
1284,98.144531,39.062500,-18.554688,93.261719,-22.460938,5.031117
1285,111.328125,41.503906,-41.992188,94.726562,-23.925781,5.035023
1286,106.933594,46.386719,-32.714844,97.167969,-58.593750,5.038930
1287,93.261719,36.621094,-19.042969,95.703125,-30.273438,5.042836
1288,84.472656,28.320312,-20.996094,80.078125,-18.554688,5.046742
1289,90.820312,27.832031,-17.578125,79.101562,-39.550781,5.050648
1290,93.750000,25.390625,-19.042969,84.472656,-24.414062,5.054555
1291,97.656250,22.949219,-21.484375,76.660156,8.789062,5.058461
1292,101.074219,20.996094,-21.484375,83.007812,30.273438,5.062367
1293,99.121094,18.066406,-16.601562,92.773438,24.902344,5.066273
1294,102.539062,22.460938,-6.347656,85.449219,-0.488281,5.070180
1295,105.468750,32.714844,-0.488281,81.542969,-23.925781,5.074086
1296,99.121094,31.250000,-9.277344,88.867188,-32.714844,5.091088
1297,92.773438,19.531250,-14.648438,89.843750,-18.066406,5.094995
1298,93.261719,21.972656,3.417969,91.796875,14.648438,5.098901
1299,85.937500,22.949219,0.488281,89.355469,23.925781,5.102807
1300,79.589844,15.136719,-5.859375,81.542969,3.906250,5.106713
1301,73.242188,16.113281,-1.953125,84.472656,15.136719,5.110620
1302,66.406250,18.554688,-20.996094,80.078125,31.250000,5.114526
1303,74.707031,21.484375,-24.902344,58.105469,29.296875,5.118432
1304,70.312500,22.460938,5.371094,60.546875,36.132812,5.122338
1305,65.429688,19.531250,14.160156,77.148438,71.777344,5.126245
1306,77.636719,23.437500,1.464844,75.683594,67.382812,5.130151
1307,70.800781,20.996094,-1.464844,62.011719,48.828125,5.134057
1308,70.800781,21.972656,-2.929688,78.613281,78.613281,5.131162
1309,87.402344,25.390625,2.929688,92.773438,39.062500,5.135068
1310,82.031250,25.390625,10.742188,83.496094,14.648438,5.138975
1311,75.683594,27.832031,14.160156,66.894531,23.925781,5.142881
1312,73.242188,27.343750,-0.976562,64.453125,26.367188,5.146787
1313,62.500000,26.367188,-2.929688,68.359375,15.625000,5.150693
1314,67.382812,22.949219,14.160156,67.871094,9.277344,5.154600
1315,75.195312,14.160156,2.441406,76.171875,44.921875,5.158506
1316,75.683594,18.554688,3.906250,66.406250,53.710938,5.162412
1317,74.218750,28.320312,21.484375,60.546875,27.343750,5.166318
1318,65.917969,28.320312,20.019531,66.894531,12.207031,5.170225
1319,60.058594,32.226562,12.695312,66.406250,22.460938,5.174131
1320,62.011719,32.226562,2.441406,69.824219,19.042969,5.171047
1321,62.988281,26.855469,0.488281,57.617188,27.343750,5.174953
1322,68.359375,25.878906,-7.324219,41.015625,55.175781,5.178859
1323,56.640625,27.343750,-7.812500,35.156250,44.433594,5.182766
1324,39.550781,32.226562,3.906250,44.433594,12.695312,5.186672
1325,47.363281,31.738281,-7.324219,47.851562,11.230469,5.190578
1326,46.386719,23.925781,2.929688,36.132812,19.042969,5.194484
1327,38.574219,20.996094,13.183594,41.503906,24.902344,5.198391
1328,32.226562,26.367188,4.882812,48.339844,-3.417969,5.202297
1329,30.273438,25.878906,6.835938,35.156250,-13.183594,5.206203
1330,33.691406,20.019531,7.812500,37.109375,61.035156,5.210109
1331,25.878906,20.996094,11.230469,50.292969,68.847656,5.214016
1332,21.484375,23.925781,12.695312,43.945312,56.152344,5.231122
1333,23.925781,24.414062,5.859375,42.968750,46.875000,5.235028
1334,27.832031,27.832031,7.324219,53.710938,33.691406,5.238934
1335,21.972656,29.296875,0.488281,36.132812,59.570312,5.242841
1336,16.113281,24.902344,-6.835938,32.714844,69.824219,5.246747
1337,29.785156,27.832031,4.882812,38.085938,48.828125,5.250653
1338,20.996094,24.414062,18.554688,33.203125,6.347656,5.254559
1339,25.390625,19.042969,14.160156,32.714844,-34.667969,5.258466
1340,30.761719,21.972656,12.695312,27.832031,-30.761719,5.262372
1341,24.414062,23.437500,15.136719,26.855469,-41.503906,5.266278
1342,27.832031,28.320312,9.765625,22.949219,-35.644531,5.270184
1343,31.250000,26.855469,1.953125,27.832031,-14.160156,5.274091
1344,25.878906,26.855469,5.371094,28.320312,-1.464844,5.271020
1345,23.437500,30.273438,5.859375,27.343750,12.695312,5.274926
1346,23.437500,29.296875,13.671875,39.550781,25.390625,5.278833
1347,30.761719,30.273438,11.230469,26.855469,32.226562,5.282739
1348,39.550781,29.785156,-6.347656,20.996094,19.042969,5.286645
1349,17.089844,26.367188,10.253906,27.832031,23.925781,5.290551
1350,13.183594,16.601562,30.273438,36.621094,47.363281,5.294458
1351,46.875000,18.066406,28.320312,55.175781,66.406250,5.298364
1352,43.457031,39.550781,13.183594,38.574219,46.386719,5.302270
1353,8.789062,38.085938,-1.953125,1.464844,36.621094,5.306176
1354,17.578125,28.808594,-0.488281,5.371094,26.855469,5.310083
1355,29.785156,33.203125,-0.488281,15.136719,14.160156,5.313989
1356,10.742188,35.156250,-11.718750,3.417969,26.855469,5.311279
1357,7.324219,41.503906,-12.207031,0.976562,53.710938,5.315185
1358,8.789062,44.921875,-11.718750,-0.488281,34.667969,5.319091
1359,3.417969,39.550781,-15.625000,-0.976562,14.648438,5.322997
1360,0.000000,34.667969,-16.113281,3.906250,48.339844,5.326904
1361,1.464844,25.390625,-16.601562,3.417969,78.613281,5.330810
1362,4.882812,27.343750,-17.089844,-1.953125,70.312500,5.334716
1363,5.859375,37.597656,-25.878906,3.417969,37.597656,5.338622
1364,11.230469,40.527344,-36.621094,9.765625,0.488281,5.342529
1365,24.902344,42.480469,-37.597656,19.042969,11.718750,5.346435
1366,32.714844,44.433594,-13.183594,24.414062,38.574219,5.350341
1367,22.949219,36.621094,-5.859375,20.507812,52.246094,5.354247
1368,27.343750,29.785156,-14.160156,19.531250,65.429688,5.371031
1369,41.503906,32.226562,-10.253906,26.367188,29.296875,5.374938
1370,29.296875,31.250000,-12.695312,29.296875,-8.789062,5.378844
1371,23.925781,34.179688,-5.859375,27.343750,-9.277344,5.382750
1372,19.531250,28.808594,4.394531,38.085938,9.277344,5.386656
1373,9.765625,20.996094,-4.394531,41.992188,-0.976562,5.390563
1374,21.484375,22.949219,-3.417969,32.226562,-37.109375,5.394469
1375,26.855469,24.414062,8.789062,21.972656,-30.761719,5.398375
1376,25.390625,32.714844,4.882812,24.902344,-3.417969,5.402281
1377,23.437500,31.250000,0.488281,31.250000,4.394531,5.406188
1378,11.230469,24.414062,5.371094,46.386719,0.976562,5.410094
1379,15.136719,34.179688,6.347656,46.386719,2.929688,5.414000
1380,22.460938,42.480469,3.906250,29.296875,-6.835938,5.411304
1381,22.949219,39.550781,8.789062,16.601562,-17.578125,5.415210
1382,29.296875,33.691406,20.507812,14.160156,35.644531,5.419116
1383,20.019531,30.273438,16.601562,23.925781,69.824219,5.423023
1384,10.253906,30.761719,4.882812,32.226562,51.757812,5.426929
1385,10.253906,33.691406,7.324219,27.343750,39.062500,5.430835
1386,18.554688,33.203125,5.371094,24.902344,56.152344,5.434741
1387,15.136719,29.296875,-4.882812,17.578125,60.546875,5.438648
1388,7.812500,32.714844,1.953125,14.648438,57.128906,5.442554
1389,16.113281,36.132812,19.531250,24.414062,19.531250,5.446460
1390,15.625000,30.273438,14.160156,15.136719,8.789062,5.450366
1391,16.113281,29.785156,12.207031,4.394531,28.320312,5.454273
1392,14.648438,36.621094,22.949219,2.441406,30.273438,5.451353
1393,14.648438,34.667969,21.484375,11.718750,72.265625,5.455259
1394,26.367188,33.691406,8.300781,13.183594,92.773438,5.459165
1395,23.925781,34.667969,-1.953125,0.000000,72.265625,5.463072
1396,15.136719,32.714844,2.441406,-3.417969,34.667969,5.466978
1397,21.484375,31.738281,7.812500,8.789062,39.550781,5.470884
1398,17.089844,30.273438,22.460938,20.996094,51.757812,5.474790
1399,14.648438,25.878906,25.390625,9.765625,58.105469,5.478697
1400,11.230469,26.855469,16.113281,23.925781,23.925781,5.482603
1401,0.488281,28.320312,28.808594,24.902344,-17.089844,5.486509
1402,15.625000,32.226562,33.691406,-2.929688,12.695312,5.490415
1403,30.761719,31.738281,25.878906,4.882812,23.437500,5.494322
1404,25.390625,33.203125,20.507812,3.417969,16.601562,5.511081
1405,3.417969,34.667969,15.625000,3.417969,0.976562,5.514987
1406,-1.464844,31.738281,12.207031,-6.347656,18.554688,5.518893
1407,13.671875,32.714844,11.718750,-20.019531,19.531250,5.522799
1408,7.812500,28.320312,11.230469,-20.019531,15.136719,5.526706
1409,-8.789062,22.460938,-2.929688,-6.347656,26.367188,5.530612
1410,-7.812500,23.925781,-9.277344,-4.882812,20.019531,5.534518
1411,0.976562,20.507812,6.835938,-15.136719,13.671875,5.538424
1412,2.441406,20.019531,9.277344,-3.906250,34.179688,5.542331
1413,2.441406,35.644531,-7.324219,12.695312,25.878906,5.546237
1414,7.812500,42.968750,3.417969,13.183594,1.953125,5.550143
1415,16.601562,37.597656,20.019531,12.695312,29.785156,5.554049
1416,12.207031,28.320312,17.578125,28.320312,64.453125,5.551318
1417,8.300781,27.343750,9.277344,21.484375,40.527344,5.555224
1418,21.484375,38.085938,11.230469,14.648438,54.687500,5.559130
1419,30.273438,40.527344,25.390625,20.019531,83.007812,5.563036
1420,23.925781,36.132812,11.718750,20.019531,40.039062,5.566943
1421,17.578125,28.808594,0.488281,12.207031,64.453125,5.570849
1422,16.601562,20.996094,9.277344,6.347656,79.101562,5.574755
1423,23.437500,19.531250,16.601562,17.578125,57.617188,5.578661
1424,14.648438,23.437500,13.671875,21.484375,87.890625,5.582568
1425,16.113281,26.855469,5.859375,29.296875,42.968750,5.586474
1426,20.996094,22.949219,18.554688,43.457031,-7.324219,5.590380
1427,17.089844,22.949219,31.738281,26.367188,36.621094,5.594286
1428,18.066406,26.855469,36.621094,22.460938,46.875000,5.590303
1429,28.320312,29.785156,36.621094,32.714844,40.527344,5.594209
1430,27.343750,27.832031,29.785156,27.343750,58.105469,5.598115
1431,24.902344,25.878906,22.460938,25.878906,55.175781,5.602021
1432,24.414062,32.226562,17.578125,24.414062,54.687500,5.605928
1433,21.484375,33.691406,21.484375,41.503906,32.714844,5.609834
1434,24.902344,32.226562,22.460938,47.363281,34.667969,5.613740
1435,17.578125,36.132812,21.972656,33.203125,68.359375,5.617646
1436,24.414062,33.691406,34.667969,30.761719,32.714844,5.621553
1437,55.175781,37.109375,37.109375,44.921875,8.300781,5.625459
1438,43.457031,43.457031,32.226562,45.898438,12.207031,5.629365
1439,14.160156,36.621094,35.644531,33.691406,53.710938,5.633271
1440,21.484375,33.203125,32.714844,39.550781,96.679688,5.656435
1441,23.925781,25.390625,28.808594,35.156250,70.312500,5.660341
1442,23.437500,20.507812,26.855469,39.062500,50.292969,5.664247
1443,43.945312,21.484375,20.019531,46.875000,22.949219,5.668153
1444,53.710938,22.460938,23.437500,54.199219,23.437500,5.672060
1445,45.410156,14.648438,23.437500,53.222656,23.925781,5.675966
1446,46.386719,11.230469,22.949219,46.875000,31.250000,5.679872
1447,44.921875,18.066406,8.789062,55.664062,37.597656,5.683778
1448,39.550781,19.042969,8.300781,68.847656,21.972656,5.687685
1449,42.480469,16.601562,35.644531,62.500000,4.882812,5.691591
1450,45.410156,12.695312,38.574219,46.386719,33.203125,5.695497
1451,40.527344,12.207031,30.761719,36.132812,48.339844,5.699403
1452,58.593750,22.949219,10.742188,51.757812,53.222656,5.691093
1453,49.804688,30.273438,-15.625000,61.035156,77.148438,5.695000
1454,29.785156,24.414062,5.859375,46.386719,64.453125,5.698906
1455,39.062500,20.507812,31.738281,48.339844,75.195312,5.702812
1456,38.574219,14.160156,23.437500,46.875000,88.867188,5.706718
1457,35.156250,7.812500,16.113281,42.968750,65.917969,5.710625
1458,30.761719,14.648438,22.460938,45.410156,47.851562,5.714531
1459,41.015625,25.390625,40.039062,30.761719,60.058594,5.718437
1460,39.550781,32.714844,35.644531,39.550781,60.546875,5.722343
1461,40.527344,30.761719,21.972656,46.386719,30.761719,5.726250
1462,54.199219,24.414062,8.789062,32.226562,34.667969,5.730156
1463,30.761719,25.878906,15.625000,41.015625,27.343750,5.734062
1464,20.996094,32.714844,10.742188,49.804688,52.246094,5.736259
1465,30.273438,35.644531,7.812500,49.316406,61.523438,5.740166
1466,29.785156,36.621094,27.343750,44.921875,37.109375,5.744072
1467,23.437500,33.691406,14.160156,36.132812,43.457031,5.747978
1468,17.578125,25.878906,26.367188,35.644531,57.617188,5.751884
1469,34.179688,23.925781,42.480469,29.785156,74.707031,5.755791
1470,35.156250,28.320312,34.179688,30.761719,80.078125,5.759697
1471,31.738281,29.785156,27.832031,33.691406,87.402344,5.763603
1472,38.085938,25.390625,12.207031,28.320312,49.316406,5.767509
1473,22.460938,28.320312,16.601562,42.480469,39.062500,5.771416
1474,27.832031,27.343750,30.761719,45.898438,74.218750,5.775322
1475,42.480469,34.667969,39.550781,47.363281,65.917969,5.779228
1476,30.761719,38.085938,24.902344,48.339844,64.941406,5.791045
1477,32.714844,35.156250,15.136719,40.527344,63.964844,5.794951
1478,37.597656,34.179688,31.250000,35.156250,57.128906,5.798858
1479,34.179688,28.320312,28.320312,42.968750,72.753906,5.802764
1480,45.410156,32.226562,-1.464844,46.386719,77.636719,5.806670
1481,41.015625,28.808594,5.859375,24.902344,76.660156,5.810576
1482,18.554688,27.343750,27.343750,15.136719,57.128906,5.814483
1483,28.808594,28.320312,23.925781,17.089844,44.921875,5.818389
1484,33.203125,22.949219,33.691406,9.277344,48.828125,5.822295
1485,20.507812,25.878906,33.691406,13.671875,14.648438,5.826201
1486,20.019531,21.972656,23.925781,25.878906,25.390625,5.830108
1487,25.390625,22.949219,2.929688,30.273438,-19.531250,5.834014
1488,29.296875,32.714844,2.929688,33.203125,-53.222656,5.831264
1489,24.414062,31.250000,19.042969,29.785156,-37.109375,5.835170
1490,20.507812,27.343750,-2.929688,39.550781,-3.906250,5.839077
1491,19.042969,23.437500,-31.738281,43.945312,18.554688,5.842983
1492,15.625000,20.996094,11.230469,34.179688,-3.417969,5.846889
1493,15.136719,20.996094,34.667969,27.343750,24.902344,5.850795
1494,12.695312,19.531250,10.742188,17.089844,46.386719,5.854702
1495,12.695312,24.414062,18.554688,18.066406,20.019531,5.858608
1496,11.718750,25.390625,35.644531,20.996094,2.441406,5.862514
1497,17.578125,20.996094,31.738281,22.949219,-30.761719,5.866420
1498,19.042969,20.019531,14.648438,20.019531,3.417969,5.870327
1499,25.390625,24.414062,0.488281,23.437500,35.644531,5.874233
1500,25.878906,31.250000,3.906250,33.203125,0.488281,5.871133
1501,17.089844,36.132812,17.578125,34.667969,34.667969,5.875039
1502,25.878906,33.691406,9.765625,38.574219,21.972656,5.878946
1503,23.437500,33.203125,-4.394531,42.968750,-12.207031,5.882852
1504,12.207031,44.433594,6.835938,36.621094,4.394531,5.886758
1505,9.765625,41.503906,11.230469,22.460938,-2.929688,5.890664
1506,18.554688,33.691406,11.718750,19.042969,6.347656,5.894571
1507,21.972656,38.085938,3.417969,33.203125,-17.089844,5.898477
1508,20.996094,36.621094,-10.742188,37.109375,-71.289062,5.902383
1509,22.949219,27.832031,-7.324219,40.527344,-18.066406,5.906289
1510,16.113281,24.902344,12.207031,34.179688,19.531250,5.910196
1511,14.648438,31.250000,16.601562,32.226562,15.625000,5.914102
1512,20.996094,27.343750,-20.019531,39.062500,50.781250,5.931281
1513,9.765625,22.949219,-3.906250,28.808594,35.644531,5.935187
1514,-3.906250,20.996094,35.156250,21.484375,5.859375,5.939093
1515,6.835938,20.507812,15.625000,19.042969,30.761719,5.942999
1516,10.253906,25.390625,12.695312,18.554688,41.503906,5.946906
1517,6.347656,21.972656,23.925781,20.996094,0.000000,5.950812
1518,5.371094,11.230469,9.765625,13.671875,-4.882812,5.954718
1519,17.089844,10.742188,4.394531,17.089844,41.992188,5.958624
1520,15.136719,20.507812,15.136719,28.320312,65.917969,5.962531
1521,6.835938,30.273438,13.183594,28.808594,38.085938,5.966437
1522,19.531250,31.738281,-3.417969,21.972656,-8.789062,5.970343
1523,19.531250,29.296875,-3.906250,20.507812,-16.601562,5.974249
1524,13.671875,27.343750,17.578125,20.019531,-9.765625,5.971267
1525,17.578125,23.925781,24.902344,22.949219,-10.742188,5.975173
1526,5.859375,23.925781,17.089844,19.042969,21.484375,5.979079
1527,-2.441406,21.484375,16.113281,10.742188,26.855469,5.982985
1528,6.835938,20.996094,31.250000,13.671875,-17.578125,5.986892
1529,7.324219,27.343750,19.042969,12.207031,-18.554688,5.990798
1530,9.277344,29.785156,6.347656,6.835938,24.414062,5.994704
1531,19.042969,33.691406,24.414062,13.183594,26.367188,5.998610
1532,10.742188,30.273438,28.320312,20.019531,30.273438,6.002517
1533,16.601562,23.437500,11.718750,21.484375,7.324219,6.006423
1534,19.042969,24.414062,-2.929688,14.648438,-21.484375,6.010329
1535,7.812500,20.507812,2.441406,12.695312,-22.460938,6.014235
1536,22.949219,22.949219,9.277344,22.949219,-3.417969,6.030598
1537,21.972656,30.273438,15.136719,20.996094,38.574219,6.034504
1538,15.625000,27.343750,9.277344,0.976562,51.757812,6.038410
1539,6.347656,33.203125,11.718750,-4.394531,25.390625,6.042316
1540,11.718750,40.527344,17.089844,9.277344,6.347656,6.046223
1541,24.902344,39.550781,4.394531,5.371094,10.742188,6.050129
1542,18.066406,35.156250,7.812500,0.000000,28.320312,6.054035
1543,17.089844,31.250000,-2.929688,17.578125,19.042969,6.057941
1544,11.230469,23.437500,-0.976562,17.578125,5.371094,6.061848
1545,13.183594,23.437500,14.648438,21.484375,29.785156,6.065754
1546,16.601562,31.738281,1.464844,24.414062,6.835938,6.069660
1547,12.207031,30.273438,-2.929688,27.832031,16.601562,6.073566
1548,19.531250,19.042969,17.578125,41.015625,44.921875,6.076091
1549,20.996094,18.066406,25.390625,21.972656,12.695312,6.079997
1550,8.789062,27.343750,15.625000,8.789062,3.417969,6.083903
1551,-0.488281,28.808594,14.160156,18.554688,55.175781,6.087809
1552,6.835938,30.273438,10.253906,20.019531,36.132812,6.091716
1553,14.160156,30.273438,-5.859375,21.484375,23.925781,6.095622
1554,11.718750,27.343750,0.000000,23.925781,41.015625,6.099528
1555,15.625000,23.437500,18.066406,23.925781,4.882812,6.103434
1556,17.089844,23.437500,26.367188,29.785156,13.183594,6.107341
1557,14.648438,18.554688,20.019531,27.343750,28.320312,6.111247
1558,33.203125,10.253906,8.789062,40.527344,3.417969,6.115153
1559,60.546875,32.226562,4.882812,65.917969,-27.343750,6.119059
1560,32.714844,45.898438,10.253906,29.785156,-11.718750,6.116122
1561,-2.441406,25.390625,15.136719,-9.765625,26.855469,6.120028
1562,-19.531250,28.808594,17.578125,-3.906250,41.503906,6.123934
1563,-23.925781,40.527344,12.207031,-0.488281,1.953125,6.127841
1564,-19.531250,41.992188,-2.929688,-11.230469,-41.015625,6.131747
1565,-20.019531,45.898438,-20.507812,-37.597656,-49.316406,6.135653
1566,-13.183594,49.804688,-29.296875,-38.574219,-37.109375,6.139559
1567,-13.183594,51.269531,-13.183594,-23.925781,-52.246094,6.143466
1568,-10.742188,48.339844,-6.347656,-34.667969,-21.972656,6.147372
1569,-9.277344,41.992188,-14.160156,-34.667969,40.527344,6.151278
1570,-10.742188,40.527344,-15.136719,-35.156250,18.554688,6.155184
1571,-3.906250,43.457031,-20.507812,-25.390625,2.929688,6.159091
1572,6.347656,42.480469,-14.160156,-3.417969,33.203125,6.155088
1573,9.277344,46.386719,2.929688,-4.394531,36.132812,6.158994
1574,8.300781,45.898438,7.812500,-6.347656,1.464844,6.162901
1575,6.835938,39.062500,-7.324219,-9.765625,-33.203125,6.166807
1576,9.765625,38.574219,-7.812500,-3.417969,-48.339844,6.170713
1577,15.625000,32.226562,0.488281,12.207031,-10.742188,6.174619
1578,18.554688,28.808594,-4.394531,10.742188,39.062500,6.178526
1579,12.695312,33.203125,-10.253906,12.207031,0.488281,6.182432
1580,13.671875,35.644531,-7.812500,23.437500,-38.574219,6.186338
1581,13.183594,35.156250,-3.417969,20.019531,9.277344,6.190244
1582,12.695312,35.156250,6.835938,18.066406,59.082031,6.194151
1583,19.531250,36.621094,12.207031,20.507812,51.757812,6.198057
1584,29.785156,31.250000,18.554688,14.160156,10.253906,6.215446
1585,34.179688,37.109375,23.437500,6.347656,-3.906250,6.219352
1586,23.437500,40.039062,10.742188,4.394531,12.695312,6.223259
1587,13.183594,30.761719,5.859375,10.253906,13.671875,6.227165
1588,16.113281,30.273438,0.976562,13.671875,4.394531,6.231071
1589,26.855469,34.667969,4.882812,18.066406,11.230469,6.234977
1590,24.902344,39.550781,7.812500,23.437500,-12.695312,6.238884
1591,14.648438,31.738281,14.160156,11.230469,-14.160156,6.242790
1592,29.296875,26.855469,15.136719,17.578125,8.789062,6.246696
1593,32.714844,32.226562,2.929688,36.621094,16.601562,6.250602
1594,14.648438,26.367188,4.882812,22.949219,15.625000,6.254509
1595,20.507812,30.761719,17.089844,29.785156,30.273438,6.258415
1596,15.625000,32.714844,31.250000,30.761719,37.109375,6.256516
1597,6.835938,22.949219,29.785156,6.835938,14.160156,6.260423
1598,10.742188,20.019531,28.320312,15.136719,16.113281,6.264329
1599,12.695312,24.902344,9.765625,13.671875,15.625000,6.268235
1600,23.925781,35.156250,-1.953125,11.230469,20.507812,6.272141
1601,25.390625,29.785156,9.277344,19.042969,22.460938,6.276048
1602,20.019531,24.902344,12.695312,23.925781,24.414062,6.279954
1603,21.972656,32.714844,9.277344,23.437500,38.574219,6.283860
1604,19.042969,32.714844,0.000000,17.578125,31.250000,6.287766
1605,13.183594,25.390625,9.277344,13.183594,27.343750,6.291673
1606,7.812500,27.832031,27.832031,17.578125,42.968750,6.295579
1607,5.859375,28.808594,18.066406,16.601562,13.183594,6.299485
1608,7.812500,22.949219,-8.789062,14.648438,23.437500,6.295067
1609,13.183594,23.437500,-7.812500,12.207031,29.296875,6.298973
1610,16.113281,27.343750,16.113281,6.347656,-2.441406,6.302880
1611,16.113281,30.273438,21.972656,18.554688,-1.953125,6.306786
1612,10.742188,30.761719,19.042969,17.578125,-15.625000,6.310692
1613,5.859375,24.902344,10.742188,11.230469,-23.437500,6.314598
1614,8.789062,25.390625,9.277344,14.160156,-33.691406,6.318505
1615,13.183594,33.203125,13.183594,26.367188,-37.109375,6.322411
1616,18.066406,32.714844,13.183594,24.902344,15.136719,6.326317
1617,32.226562,30.273438,9.277344,19.042969,21.484375,6.330223
1618,31.738281,29.785156,11.718750,25.878906,-1.464844,6.334130
1619,23.437500,32.226562,16.601562,39.062500,8.789062,6.338036
1620,32.226562,30.273438,9.765625,40.527344,12.695312,6.355522
1621,36.132812,26.855469,15.136719,32.226562,29.296875,6.359428
1622,37.597656,31.738281,19.042969,31.250000,30.761719,6.363335
1623,30.761719,31.250000,3.417969,23.437500,12.207031,6.367241
1624,33.203125,33.691406,0.000000,24.902344,-9.277344,6.371147
1625,45.898438,34.667969,2.441406,31.250000,-29.296875,6.375053
1626,36.621094,29.296875,19.531250,24.414062,-13.671875,6.378960
1627,27.832031,27.832031,42.968750,28.808594,-20.507812,6.382866
1628,35.644531,33.691406,34.667969,43.457031,-28.320312,6.386772
1629,34.667969,35.156250,18.066406,38.574219,-12.207031,6.390678
1630,37.597656,34.179688,13.183594,35.156250,-35.644531,6.394585
1631,31.738281,34.179688,11.230469,45.898438,-42.968750,6.398491
1632,26.367188,30.761719,11.718750,39.550781,-21.972656,6.390599
1633,22.949219,31.250000,19.531250,35.156250,12.695312,6.394505
1634,20.996094,35.644531,20.507812,19.042969,57.128906,6.398412
1635,22.460938,35.156250,15.625000,13.671875,28.808594,6.402318
1636,35.156250,32.714844,23.925781,33.691406,12.695312,6.406224
1637,28.320312,32.226562,21.484375,24.902344,20.996094,6.410130
1638,18.066406,37.597656,2.441406,30.761719,11.718750,6.414037
1639,32.226562,37.597656,2.441406,47.363281,9.765625,6.417943
1640,33.203125,30.761719,20.507812,28.320312,-9.277344,6.421849
1641,19.042969,22.460938,19.042969,15.625000,-1.953125,6.425755
1642,20.019531,26.855469,9.765625,15.136719,10.742188,6.429662
1643,28.320312,37.109375,20.019531,23.925781,8.300781,6.433568
1644,24.414062,32.714844,22.949219,48.828125,11.230469,6.435264
1645,17.578125,28.320312,22.949219,39.550781,15.136719,6.439171
1646,16.601562,33.691406,20.507812,5.371094,19.042969,6.443077
1647,10.742188,30.761719,19.042969,0.976562,36.132812,6.446983
1648,0.488281,25.878906,8.789062,15.136719,37.109375,6.450889
1649,10.742188,25.390625,-2.441406,22.460938,36.132812,6.454796
1650,29.785156,28.320312,7.324219,35.156250,21.484375,6.458702
1651,25.390625,27.343750,12.207031,38.574219,-20.996094,6.462608
1652,22.460938,22.460938,18.554688,17.089844,-3.417969,6.466514
1653,24.902344,22.460938,24.414062,25.390625,37.109375,6.470421
1654,11.718750,24.902344,25.878906,33.691406,21.484375,6.474327
1655,18.554688,24.902344,24.414062,16.113281,-15.136719,6.478233
1656,19.042969,20.996094,9.765625,14.648438,25.390625,6.491074
1657,10.253906,19.042969,-4.882812,24.414062,35.156250,6.494980
1658,18.066406,20.507812,19.531250,19.042969,-1.464844,6.498887
1659,33.691406,27.343750,30.273438,22.460938,18.066406,6.502793
1660,32.226562,25.390625,21.972656,35.156250,43.457031,6.506699
1661,12.207031,8.789062,34.667969,21.484375,26.367188,6.510605
1662,-0.976562,5.859375,39.062500,22.949219,-11.230469,6.514512
1663,3.906250,10.253906,38.085938,29.785156,26.367188,6.518418
1664,16.601562,10.742188,38.085938,25.878906,67.871094,6.522324
1665,19.531250,8.789062,41.015625,44.433594,62.011719,6.526230
1666,16.113281,1.953125,37.597656,50.781250,26.367188,6.530137
1667,25.390625,0.488281,37.109375,59.570312,24.414062,6.534043
1668,28.320312,0.000000,51.269531,58.593750,68.359375,6.536206
1669,24.902344,-2.441406,49.316406,35.156250,51.757812,6.540112
1670,24.902344,0.488281,42.968750,34.667969,36.132812,6.544018
1671,23.925781,3.906250,40.527344,43.945312,44.921875,6.547925
1672,35.156250,2.441406,41.015625,56.152344,45.898438,6.551831
1673,37.597656,4.882812,33.691406,55.175781,43.457031,6.555737
1674,37.109375,5.371094,28.320312,50.292969,25.878906,6.559643
1675,43.457031,6.347656,49.804688,55.664062,17.089844,6.563550
1676,42.480469,10.742188,30.273438,46.875000,7.812500,6.567456
1677,40.527344,8.789062,21.484375,32.714844,-22.460938,6.571362
1678,33.203125,10.253906,62.011719,36.132812,-10.253906,6.575268
1679,35.644531,20.996094,69.335938,54.687500,13.671875,6.579175
1680,39.550781,21.484375,52.246094,53.222656,41.503906,6.591187
1681,36.132812,12.695312,52.246094,41.992188,25.878906,6.595093
1682,31.250000,18.554688,43.945312,47.363281,28.320312,6.599000
1683,25.878906,20.996094,30.273438,51.269531,49.804688,6.602906
1684,23.437500,6.347656,38.085938,32.226562,43.457031,6.606812
1685,24.902344,2.441406,44.433594,23.925781,71.777344,6.610718
1686,34.179688,7.812500,41.992188,36.621094,64.453125,6.614625
1687,36.621094,6.835938,39.550781,35.156250,27.832031,6.618531
1688,26.367188,11.230469,24.902344,37.109375,54.199219,6.622437
1689,27.832031,18.554688,29.296875,45.898438,76.171875,6.626343
1690,38.574219,22.460938,54.199219,39.062500,77.636719,6.630250
1691,40.527344,22.949219,34.179688,40.527344,63.964844,6.634156
1692,37.597656,30.761719,19.042969,39.550781,61.035156,6.631256
1693,30.761719,27.343750,37.597656,27.832031,72.265625,6.635162
1694,37.109375,22.949219,40.527344,36.132812,37.597656,6.639068
1695,43.457031,28.320312,33.691406,53.222656,29.296875,6.642975
1696,33.691406,28.320312,25.390625,59.570312,-5.859375,6.646881
1697,18.554688,24.414062,26.367188,31.738281,-23.437500,6.650787
1698,11.230469,22.460938,24.902344,23.437500,-18.554688,6.654693
1699,20.507812,24.414062,24.414062,36.132812,-22.460938,6.658600
1700,30.273438,27.343750,31.250000,27.832031,-4.882812,6.662506
1701,28.808594,36.621094,35.644531,31.250000,11.718750,6.666412
1702,15.625000,38.574219,25.878906,32.226562,-29.785156,6.670318
1703,20.996094,36.132812,28.808594,19.531250,-44.433594,6.674225
1704,28.808594,30.761719,38.574219,27.343750,15.136719,6.671035
1705,21.484375,21.972656,27.343750,35.156250,13.671875,6.674941
1706,17.089844,23.437500,16.601562,28.808594,-4.394531,6.678847
1707,19.042969,27.343750,25.878906,26.855469,3.906250,6.682754
1708,17.578125,32.226562,25.390625,34.179688,0.976562,6.686660
1709,22.949219,38.085938,13.671875,34.667969,-11.230469,6.690566
1710,27.343750,30.273438,35.156250,30.761719,4.394531,6.694472
1711,18.066406,26.855469,31.250000,20.507812,37.109375,6.698379
1712,15.625000,30.273438,11.230469,12.207031,38.574219,6.702285
1713,21.972656,26.367188,20.507812,14.160156,25.390625,6.706191
1714,14.648438,30.273438,40.039062,13.183594,16.601562,6.710097
1715,8.300781,34.179688,36.132812,4.394531,-6.347656,6.714004
1716,13.183594,38.085938,13.671875,5.859375,-6.835938,6.730994
1717,23.925781,43.945312,30.273438,22.460938,1.953125,6.734900
1718,26.855469,42.480469,39.550781,27.343750,-3.906250,6.738806
1719,7.812500,26.367188,25.390625,20.996094,23.437500,6.742713
1720,-2.929688,31.738281,46.875000,19.531250,24.414062,6.746619
1721,-16.113281,33.203125,62.011719,0.000000,20.507812,6.750525
1722,-36.132812,21.484375,39.062500,-14.160156,-8.789062,6.754431
1723,-40.039062,34.667969,41.015625,-21.972656,-48.339844,6.758338
1724,-62.011719,25.390625,84.472656,-42.968750,-7.812500,6.762244
1725,-75.683594,12.207031,84.472656,-46.386719,15.136719,6.766150
1726,-81.054688,13.671875,66.894531,-42.480469,-3.417969,6.770056
1727,-102.050781,6.347656,77.636719,-64.453125,18.554688,6.773963
1728,-120.117188,9.277344,105.468750,-72.753906,13.671875,6.771204
1729,-123.046875,11.718750,97.656250,-75.683594,6.347656,6.775111
1730,-135.742188,0.000000,100.585938,-98.632812,10.253906,6.779017
1731,-156.250000,-13.183594,139.160156,-103.515625,3.906250,6.782923
1732,-160.644531,-18.066406,129.394531,-100.585938,-7.324219,6.786829
1733,-154.785156,-13.183594,107.910156,-84.960938,-15.625000,6.790736
1734,-157.226562,-16.113281,129.882812,-85.449219,9.765625,6.794642
1735,-174.316406,-30.273438,162.109375,-96.679688,15.136719,6.798548
1736,-170.898438,-31.738281,160.156250,-87.890625,33.691406,6.802454
1737,-160.156250,-28.808594,156.250000,-73.730469,26.367188,6.806361
1738,-145.996094,-31.738281,159.667969,-52.734375,-41.992188,6.810267
1739,-135.253906,-26.367188,153.808594,-41.503906,-38.085938,6.814173
1740,-135.253906,-23.437500,151.367188,-48.828125,-7.812500,6.811212
1741,-114.257812,-23.437500,140.136719,-39.062500,-6.347656,6.815119
1742,-98.632812,-28.320312,113.281250,-17.578125,5.371094,6.819025
1743,-90.332031,-40.039062,131.347656,-20.019531,15.136719,6.822931
1744,-79.101562,-39.062500,164.062500,-12.695312,-7.812500,6.826837
1745,-52.734375,-32.226562,150.390625,19.042969,11.718750,6.830744
1746,-30.761719,-34.667969,129.394531,34.179688,23.925781,6.834650
1747,-28.320312,-33.691406,124.023438,36.132812,18.066406,6.838556
1748,-18.066406,-36.132812,106.933594,43.945312,-5.371094,6.842462
1749,1.464844,-32.714844,103.027344,68.847656,-8.300781,6.846369
1750,34.179688,-23.925781,117.187500,92.285156,19.531250,6.850275
1751,35.156250,-19.531250,103.515625,80.078125,20.507812,6.854181
1752,25.390625,-17.578125,91.796875,72.753906,0.488281,6.876145
1753,26.855469,-19.042969,74.218750,79.101562,-26.367188,6.880052
1754,48.828125,-12.207031,68.847656,81.054688,-3.417969,6.883958
1755,61.523438,-6.835938,62.011719,94.726562,-2.441406,6.887864
1756,58.105469,-8.300781,37.109375,106.933594,-30.761719,6.891770
1757,66.406250,-12.695312,39.550781,87.890625,-27.832031,6.895677
1758,69.824219,-3.417969,33.691406,92.773438,-31.250000,6.899583
1759,72.265625,4.394531,30.761719,100.585938,-28.320312,6.903489
1760,79.589844,4.882812,41.503906,96.191406,6.835938,6.907395
1761,91.796875,11.718750,38.085938,104.492188,8.789062,6.911302
1762,82.031250,12.695312,25.878906,96.191406,18.554688,6.915208
1763,81.542969,8.789062,36.132812,83.984375,16.113281,6.919114
1764,85.937500,6.835938,53.710938,79.101562,13.671875,6.916160
1765,79.589844,9.765625,27.343750,92.773438,5.371094,6.920066
1766,70.800781,11.718750,2.441406,104.003906,-25.390625,6.923972
1767,72.265625,9.277344,48.828125,87.890625,-25.390625,6.927879
1768,83.007812,13.183594,45.410156,78.125000,-15.625000,6.931785
1769,75.195312,17.578125,25.390625,82.519531,-19.042969,6.935691
1770,78.125000,19.531250,54.199219,98.144531,-29.296875,6.939597
1771,76.660156,23.437500,50.781250,95.703125,3.417969,6.943504
1772,68.847656,26.855469,38.085938,77.148438,7.324219,6.947410
1773,67.871094,25.390625,25.878906,80.078125,1.464844,6.951316
1774,66.894531,22.949219,-3.906250,73.730469,-20.507812,6.955222
1775,61.523438,20.507812,15.625000,69.335938,-28.320312,6.959129
1776,63.964844,22.949219,33.203125,78.613281,8.300781,6.976128
1777,70.312500,23.437500,20.019531,92.773438,15.625000,6.980034
1778,76.171875,23.437500,11.718750,87.402344,-11.230469,6.983940
1779,79.101562,25.878906,18.554688,72.265625,-1.464844,6.987847
1780,77.148438,29.296875,22.460938,70.800781,41.992188,6.991753
1781,68.847656,22.949219,6.835938,65.917969,49.316406,6.995659
1782,75.683594,23.437500,15.625000,77.148438,60.546875,6.999565
1783,84.472656,34.179688,20.507812,105.468750,80.566406,7.003472
1784,78.613281,33.691406,20.019531,89.355469,55.175781,7.007378
1785,79.101562,32.226562,33.691406,60.546875,17.578125,7.011284
1786,72.265625,32.714844,31.250000,63.964844,16.601562,7.015190
1787,71.289062,30.761719,25.390625,72.753906,59.082031,7.019097
1788,77.148438,29.785156,23.925781,84.472656,105.957031,7.011184
1789,67.871094,35.156250,27.832031,85.449219,77.148438,7.015090
1790,68.359375,32.226562,27.343750,71.777344,74.707031,7.018996
1791,66.406250,25.390625,23.925781,62.011719,68.359375,7.022902
1792,72.753906,35.644531,4.882812,73.242188,54.199219,7.026809
1793,77.148438,37.597656,-24.414062,85.937500,65.429688,7.030715
1794,58.593750,20.996094,23.437500,55.664062,61.523438,7.034621
1795,42.480469,23.925781,64.453125,44.433594,40.039062,7.038527
1796,43.457031,31.738281,44.921875,54.687500,27.832031,7.042434
1797,56.152344,32.714844,36.132812,52.734375,18.066406,7.046340
1798,58.593750,32.714844,27.343750,66.406250,32.714844,7.050246
1799,62.011719,34.667969,17.578125,83.496094,36.621094,7.054152
1800,57.128906,32.226562,29.785156,75.683594,-13.183594,7.051198
1801,47.363281,27.343750,19.042969,61.035156,-17.089844,7.055104
1802,52.734375,28.808594,9.765625,60.058594,20.507812,7.059011
1803,60.058594,30.273438,36.621094,54.199219,2.929688,7.062917
1804,50.292969,28.320312,28.808594,47.851562,-24.902344,7.066823
1805,35.644531,26.855469,13.183594,41.992188,7.812500,7.070729
1806,32.226562,27.832031,34.667969,36.132812,25.878906,7.074636
1807,42.968750,25.390625,54.199219,40.527344,9.277344,7.078542
1808,51.269531,20.996094,44.921875,58.593750,-16.601562,7.082448
1809,51.269531,22.460938,36.621094,56.640625,-15.625000,7.086354
1810,52.734375,36.132812,14.648438,56.152344,-24.902344,7.090261
1811,47.851562,43.457031,-2.441406,58.593750,11.230469,7.094167
1812,42.968750,39.550781,40.527344,52.734375,37.597656,7.091212
1813,43.945312,33.203125,67.382812,45.410156,15.136719,7.095118
1814,37.597656,30.273438,45.410156,36.132812,10.253906,7.099025
1815,36.132812,34.179688,45.410156,42.480469,2.441406,7.102931
1816,39.062500,35.156250,15.136719,49.316406,20.996094,7.106837
1817,40.039062,29.785156,-32.226562,38.574219,18.554688,7.110743
1818,37.109375,23.925781,22.460938,32.714844,30.761719,7.114650
1819,35.644531,26.855469,43.945312,39.062500,65.917969,7.118556
1820,43.457031,30.761719,19.531250,50.292969,49.804688,7.122462
1821,43.945312,34.667969,26.855469,54.199219,59.082031,7.126368
1822,38.574219,37.109375,20.996094,48.828125,40.527344,7.130275
1823,32.714844,33.203125,33.691406,39.062500,37.597656,7.134181
1824,41.503906,31.738281,18.066406,37.109375,53.222656,7.171037
1825,54.199219,33.691406,2.929688,58.105469,15.136719,7.174943
1826,46.875000,31.250000,9.765625,50.781250,0.000000,7.178849
1827,48.339844,30.761719,43.945312,31.250000,5.371094,7.182756
1828,38.574219,31.738281,63.476562,34.667969,38.085938,7.186662
1829,32.226562,34.179688,41.015625,41.992188,39.062500,7.190568
1830,36.132812,32.226562,41.992188,35.156250,-12.207031,7.194474
1831,39.550781,24.902344,43.457031,27.343750,-22.460938,7.198381
1832,41.503906,28.808594,24.414062,41.015625,22.949219,7.202287
1833,33.691406,34.179688,7.812500,41.992188,36.132812,7.206193
1834,29.785156,38.085938,12.207031,33.203125,46.875000,7.210099
1835,26.855469,34.179688,36.132812,35.644531,58.593750,7.214006
1836,34.179688,29.296875,67.871094,37.109375,35.644531,7.191040
1837,38.085938,30.761719,60.546875,50.781250,16.601562,7.194946
1838,29.296875,33.203125,25.878906,51.757812,13.183594,7.198853
1839,35.644531,30.273438,38.085938,29.296875,37.597656,7.202759
1840,39.550781,29.785156,38.574219,29.296875,18.554688,7.206665
1841,26.855469,29.785156,35.644531,28.320312,-19.531250,7.210571
1842,12.695312,22.949219,65.917969,18.554688,-9.765625,7.214478
1843,16.601562,18.554688,75.195312,23.437500,2.929688,7.218384
1844,24.414062,23.437500,64.453125,33.203125,19.531250,7.222290
1845,20.507812,20.019531,60.058594,28.808594,1.464844,7.226196
1846,23.925781,23.437500,58.105469,32.714844,-20.019531,7.230103
1847,23.437500,26.367188,46.875000,44.921875,16.601562,7.234009
1848,28.808594,24.414062,27.343750,52.734375,15.625000,7.236098
1849,31.738281,30.273438,57.128906,47.363281,22.949219,7.240004
1850,32.714844,29.296875,74.707031,30.761719,45.898438,7.243911
1851,34.667969,28.320312,64.453125,27.343750,22.460938,7.247817
1852,30.273438,26.855469,57.617188,33.203125,31.250000,7.251723
1853,33.691406,24.414062,48.339844,34.667969,26.367188,7.255629
1854,46.875000,24.902344,59.570312,40.039062,46.875000,7.259536
1855,40.039062,28.320312,38.574219,53.222656,40.039062,7.263442
1856,39.550781,32.226562,16.113281,55.175781,0.488281,7.267348
1857,45.410156,33.203125,28.320312,39.062500,21.972656,7.271254
1858,24.902344,27.832031,28.808594,25.878906,29.785156,7.275161
1859,20.019531,27.832031,38.574219,28.808594,15.136719,7.279067
1860,31.250000,38.574219,51.269531,34.667969,21.972656,7.296184
1861,29.296875,34.667969,41.503906,28.320312,35.156250,7.300091
1862,41.015625,29.785156,33.691406,35.156250,21.972656,7.303997
1863,42.480469,30.273438,31.738281,41.992188,20.996094,7.307903
1864,29.296875,28.320312,41.503906,29.296875,62.011719,7.311809
1865,36.621094,31.250000,46.875000,33.691406,93.750000,7.315716
1866,32.226562,39.062500,36.132812,33.203125,42.480469,7.319622
1867,15.625000,37.597656,34.667969,20.019531,7.324219,7.323528
1868,30.761719,28.808594,36.621094,29.296875,29.785156,7.327434
1869,44.921875,32.226562,10.742188,39.062500,61.523438,7.331341
1870,36.621094,39.550781,-0.976562,30.273438,71.289062,7.335247
1871,20.507812,33.691406,23.437500,22.949219,28.320312,7.339153
1872,20.019531,26.367188,34.667969,29.785156,16.601562,7.336379
1873,26.855469,26.367188,46.386719,34.667969,25.390625,7.340286
1874,31.250000,29.296875,42.480469,26.367188,-7.324219,7.344192
1875,13.671875,26.367188,31.738281,11.718750,-26.367188,7.348098
1876,17.578125,25.390625,45.410156,14.648438,-10.253906,7.352004
1877,32.226562,30.761719,30.761719,43.457031,2.441406,7.355911
1878,20.507812,26.855469,12.695312,42.480469,2.929688,7.359817
1879,17.578125,24.414062,40.527344,28.320312,-21.484375,7.363723
1880,29.785156,31.250000,58.105469,32.714844,-16.601562,7.367629
1881,44.921875,33.691406,34.667969,41.503906,-14.648438,7.371536
1882,26.367188,25.878906,31.738281,55.175781,-10.253906,7.375442
1883,9.765625,21.972656,55.175781,51.757812,8.300781,7.379348
1884,28.808594,27.832031,54.199219,41.015625,-13.183594,7.376607
1885,35.156250,29.296875,50.292969,41.992188,-33.691406,7.380513
