,TP9,AF7,AF8,TP10,Right AUX,timestamps
0,191.406250,31.250000,20.507812,78.613281,129.882812,0.000000
1,418.457031,20.996094,11.230469,56.152344,71.777344,0.003906
2,164.062500,29.785156,17.089844,-4.882812,-37.109375,0.007812
3,-252.929688,40.039062,26.367188,-13.183594,-58.105469,0.011719
4,-264.648438,41.015625,27.832031,50.292969,14.648438,0.015625
5,146.972656,28.808594,19.531250,87.402344,98.144531,0.019531
6,409.179688,21.972656,13.183594,57.128906,72.753906,0.023438
7,212.890625,28.320312,23.437500,6.347656,-54.199219,0.027344
8,-217.285156,33.203125,32.226562,2.929688,-78.613281,0.031250
9,-304.199219,36.621094,28.320312,43.945312,2.441406,0.035156
10,0.000000,-0.488281,-0.488281,0.000000,0.000000,0.039062
11,1.464844,-0.488281,0.000000,-0.488281,-1.953125,0.042969
12,-10.253906,0.976562,1.464844,-0.976562,1.953125,0.034330
13,9.765625,-2.929688,-4.394531,2.441406,8.300781,0.038237
14,-40.039062,15.136719,20.507812,-11.230469,-35.644531,0.042143
15,-349.609375,39.550781,45.898438,-12.695312,126.953125,0.046049
16,-333.007812,31.738281,28.808594,18.554688,400.878906,0.049955
17,167.480469,21.972656,15.136719,10.253906,439.941406,0.053862
18,410.644531,10.253906,4.394531,-48.828125,310.058594,0.057768
19,138.183594,39.550781,51.269531,-40.527344,129.882812,0.061674
20,-317.871094,60.058594,75.195312,-4.882812,105.468750,0.065580
21,-369.140625,20.019531,30.761719,-5.371094,241.699219,0.069487
22,87.890625,-6.835938,3.906250,-2.929688,296.875000,0.073393
23,402.343750,-3.417969,0.976562,-29.785156,183.105469,0.077299
24,180.175781,30.273438,33.691406,-50.292969,8.300781,0.093365
25,-298.339844,59.570312,54.687500,-4.882812,11.718750,0.097272
26,-391.113281,45.898438,40.527344,49.316406,126.953125,0.101178
27,22.949219,1.464844,2.441406,12.695312,220.703125,0.105084
28,385.742188,-8.789062,-5.371094,-14.648438,151.855469,0.108990
29,249.511719,33.203125,45.410156,-11.718750,-47.851562,0.112897
30,-238.281250,57.128906,80.566406,0.000000,-113.281250,0.116803
31,-431.640625,28.808594,40.039062,6.835938,30.273438,0.120709
32,-51.269531,-5.371094,-3.417969,14.160156,155.761719,0.124615
33,358.398438,-12.207031,-8.300781,-14.160156,90.820312,0.128522
34,277.832031,20.507812,30.273438,-54.199219,-115.234375,0.132428
35,-206.054688,49.804688,61.035156,-33.691406,-206.542969,0.136334
36,-427.734375,36.132812,40.039062,-8.789062,-54.687500,0.133357
37,-84.472656,3.417969,1.953125,-3.417969,121.582031,0.137264
38,353.027344,-1.953125,-16.113281,-29.296875,96.191406,0.141170
39,317.871094,26.367188,8.789062,-48.339844,-80.566406,0.145076
40,-150.390625,55.664062,50.292969,-6.835938,-172.851562,0.148982
41,-408.691406,59.570312,62.011719,36.621094,-69.824219,0.152889
42,-128.906250,23.437500,23.925781,21.484375,70.312500,0.156795
43,339.843750,-5.371094,-6.835938,-13.671875,56.640625,0.160701
44,373.046875,16.601562,12.207031,-34.179688,-106.445312,0.164607
45,-57.128906,60.546875,67.871094,-7.324219,-275.390625,0.168514
46,-386.718750,58.105469,62.011719,25.390625,-194.335938,0.172420
47,-202.148438,14.160156,6.835938,16.113281,6.347656,0.176326
48,285.644531,-12.207031,-16.601562,-28.320312,-27.343750,0.172989
49,400.390625,6.347656,-0.488281,-51.269531,-153.320312,0.176895
50,-8.789062,46.386719,43.457031,-28.808594,-213.378906,0.180801
51,-396.972656,50.292969,45.410156,0.000000,-125.976562,0.184707
52,-241.699219,30.761719,13.671875,22.949219,16.601562,0.188614
53,253.417969,10.253906,0.488281,6.347656,41.015625,0.192520
54,409.667969,12.207031,8.789062,-25.390625,-97.167969,0.196426
55,47.851562,49.804688,46.386719,-29.296875,-286.621094,0.200332
56,-375.000000,46.875000,58.593750,-11.718750,-218.261719,0.204239
57,-306.152344,11.718750,18.554688,3.417969,-32.714844,0.208145
58,193.847656,10.742188,-2.441406,-11.718750,-5.371094,0.212051
59,416.015625,9.277344,-0.976562,-44.433594,-113.769531,0.215957
60,97.656250,28.320312,39.062500,-36.621094,-264.160156,0.232833
61,-356.933594,38.574219,55.664062,-18.554688,-267.089844,0.236740
62,-340.820312,19.531250,24.902344,1.464844,-98.632812,0.240646
63,129.882812,-0.488281,-7.812500,-13.671875,-17.089844,0.244552
64,408.203125,3.906250,-15.136719,-52.246094,-116.210938,0.248458
65,180.175781,52.246094,40.039062,-36.132812,-281.250000,0.252365
66,-289.550781,67.382812,63.476562,-16.601562,-267.578125,0.256271
67,-365.722656,31.250000,23.925781,-1.464844,-116.210938,0.260177
68,82.519531,1.953125,-6.835938,-11.230469,-49.316406,0.264083
69,410.644531,-3.417969,-9.277344,-53.710938,-90.820312,0.267990
70,223.144531,21.972656,26.855469,-50.292969,-221.679688,0.271896
71,-253.417969,47.851562,53.222656,-15.625000,-234.375000,0.275802
72,-384.765625,41.992188,31.250000,2.441406,-65.429688,0.273254
73,31.250000,18.066406,-5.371094,4.882812,71.289062,0.277160
74,414.062500,8.789062,-12.207031,-23.437500,-13.183594,0.281066
75,274.902344,30.273438,26.367188,-39.550781,-201.660156,0.284972
76,-204.101562,53.222656,60.058594,-5.859375,-261.230469,0.288879
77,-386.718750,49.804688,49.316406,28.320312,-146.972656,0.292785
78,-24.902344,21.484375,13.671875,28.320312,-8.300781,0.296691
79,370.117188,-2.441406,-21.972656,-26.855469,-35.156250,0.300597
80,312.500000,27.343750,20.996094,-41.503906,-207.519531,0.304504
81,-151.367188,52.246094,73.242188,-4.882812,-290.527344,0.308410
82,-433.105469,26.367188,46.386719,3.906250,-173.828125,0.312316
83,-123.046875,8.789062,11.718750,10.742188,-41.015625,0.316222
84,329.101562,-4.882812,-5.371094,-18.554688,-44.921875,0.313196
85,327.636719,16.601562,22.949219,-41.992188,-156.738281,0.317102
86,-119.628906,53.222656,63.964844,-20.996094,-231.933594,0.321008
87,-429.199219,45.898438,54.199219,4.882812,-147.949219,0.324915
88,-173.828125,20.996094,12.695312,21.484375,1.464844,0.328821
89,309.082031,0.976562,-4.882812,2.929688,4.882812,0.332727
90,365.722656,6.835938,22.460938,-33.203125,-159.179688,0.336633
91,-54.687500,46.875000,71.777344,-30.761719,-270.996094,0.340540
92,-417.968750,48.339844,61.523438,-16.601562,-222.656250,0.344446
93,-254.882812,4.882812,6.347656,-17.578125,-26.367188,0.348352
94,242.187500,-16.113281,-17.089844,-37.109375,4.882812,0.352258
95,374.511719,-3.906250,-1.953125,-63.964844,-137.207031,0.356165
96,-5.371094,31.738281,42.968750,-44.921875,-241.210938,0.374119
97,-390.625000,42.480469,45.898438,-11.230469,-196.777344,0.378026
98,-270.507812,23.437500,20.996094,6.347656,-43.457031,0.381932
99,208.984375,-7.812500,-7.812500,-21.484375,16.601562,0.385838
100,401.367188,-0.976562,0.000000,-57.128906,-123.046875,0.389744
101,66.406250,35.156250,43.945312,-57.617188,-288.085938,0.393651
102,-364.257812,44.433594,51.757812,-28.808594,-207.031250,0.397557
103,-310.058594,28.808594,21.484375,-7.324219,-27.343750,0.401463
104,169.921875,6.835938,-10.253906,-25.390625,-11.230469,0.405369
105,405.761719,4.394531,-15.136719,-65.917969,-154.785156,0.409276
106,133.300781,43.457031,40.527344,-40.527344,-318.359375,0.413182
107,-325.195312,55.664062,63.476562,-1.464844,-326.171875,0.417088
108,-364.257812,18.554688,17.089844,3.417969,-160.644531,0.412915
109,96.191406,-6.835938,-12.207031,-0.488281,-12.207031,0.416821
110,394.042969,0.000000,-2.441406,-36.132812,-78.613281,0.420727
111,168.945312,37.597656,41.503906,-41.992188,-270.507812,0.424634
112,-308.105469,58.593750,62.011719,-9.277344,-271.972656,0.428540
113,-381.347656,39.550781,46.875000,18.554688,-85.937500,0.432446
114,52.246094,8.300781,12.207031,5.859375,-6.835938,0.436352
115,380.859375,5.371094,-16.601562,-42.480469,-71.289062,0.440259
116,229.003906,44.921875,24.902344,-34.179688,-257.812500,0.444165
117,-248.046875,66.894531,60.058594,-10.253906,-311.523438,0.448071
118,-437.500000,28.320312,22.460938,-34.179688,-142.578125,0.451977
119,-45.410156,3.906250,-8.300781,-33.691406,6.347656,0.455884
120,349.121094,-2.441406,-22.949219,-62.500000,-37.597656,0.457773
121,258.789062,29.296875,20.996094,-67.382812,-225.585938,0.461679
122,-215.820312,63.476562,64.453125,-34.667969,-285.156250,0.465586
123,-450.683594,37.597656,39.062500,-18.554688,-101.074219,0.469492
124,-99.121094,0.000000,5.859375,-7.324219,13.671875,0.473398
125,333.984375,-5.859375,-5.859375,-38.085938,-82.519531,0.477304
126,293.457031,25.390625,24.902344,-49.316406,-221.191406,0.481211
127,-162.109375,55.175781,66.406250,-17.089844,-277.832031,0.485117
128,-445.800781,43.457031,48.828125,-6.835938,-163.085938,0.489023
129,-157.714844,20.507812,7.324219,3.906250,-25.390625,0.492929
130,299.804688,0.000000,-18.066406,-28.320312,-56.640625,0.496836
131,328.125000,15.625000,3.906250,-54.199219,-199.707031,0.500742
132,-94.238281,53.222656,37.109375,-22.460938,-254.882812,0.513429
133,-408.203125,54.687500,38.085938,20.507812,-133.300781,0.517335
134,-196.289062,21.972656,22.949219,32.714844,-13.183594,0.521242
135,266.113281,-12.207031,-10.253906,-12.207031,-19.042969,0.525148
136,369.140625,3.906250,5.371094,-33.203125,-146.972656,0.529054
137,-29.785156,52.734375,69.824219,5.859375,-256.347656,0.532960
138,-412.109375,49.804688,61.035156,14.160156,-171.875000,0.536867
139,-266.601562,5.859375,8.300781,1.953125,-13.183594,0.540773
140,234.863281,-13.183594,-6.347656,-17.089844,30.761719,0.544679
141,396.484375,1.953125,7.324219,-48.828125,-107.910156,0.548585
142,29.785156,36.621094,46.875000,-39.550781,-276.367188,0.552492
143,-374.023438,40.039062,53.222656,-10.742188,-232.910156,0.556398
144,-276.855469,27.832031,20.019531,21.972656,-59.570312,0.553399
145,213.378906,8.789062,-9.765625,11.230469,1.953125,0.557306
146,430.664062,13.671875,0.000000,-21.484375,-110.351562,0.561212
147,97.167969,41.992188,34.179688,-36.621094,-256.835938,0.565118
148,-346.191406,50.292969,49.804688,-9.765625,-198.730469,0.569024
149,-303.710938,35.644531,36.132812,31.738281,-50.781250,0.572931
150,152.832031,8.300781,-3.906250,6.347656,-12.695312,0.576837
151,398.925781,-0.976562,-19.042969,-51.269531,-106.445312,0.580743
152,159.667969,31.738281,35.156250,-30.273438,-257.324219,0.584649
153,-301.269531,52.246094,66.894531,12.695312,-260.253906,0.588556
154,-373.535156,29.296875,22.949219,2.929688,-81.054688,0.592462
155,83.984375,10.742188,-12.207031,-7.812500,41.015625,0.596368
156,407.714844,5.371094,-14.160156,-38.085938,-56.152344,0.613048
157,192.382812,24.414062,22.949219,-46.875000,-241.699219,0.616954
158,-283.691406,46.875000,48.828125,-21.484375,-252.441406,0.620860
159,-383.300781,39.062500,27.832031,4.882812,-109.375000,0.624767
160,33.203125,8.300781,-4.394531,5.371094,10.253906,0.628673
161,404.785156,0.488281,-8.789062,-20.507812,-59.570312,0.632579
162,261.718750,37.597656,28.320312,-29.296875,-258.789062,0.636485
163,-229.980469,56.640625,52.734375,-13.183594,-319.335938,0.640392
164,-411.621094,27.832031,23.437500,-6.347656,-166.503906,0.644298
165,-29.296875,1.464844,-4.882812,1.464844,-11.718750,0.648204
166,365.722656,-10.742188,-20.019531,-37.597656,-8.300781,0.652110
167,279.296875,21.484375,12.207031,-46.875000,-165.527344,0.656017
168,-185.058594,54.199219,57.128906,-9.765625,-274.414062,0.653008
169,-421.875000,33.691406,41.015625,5.859375,-149.414062,0.656914
170,-96.679688,8.300781,0.976562,16.601562,-12.695312,0.660820
171,343.750000,-5.371094,-21.484375,-11.230469,-33.203125,0.664726
172,336.425781,13.671875,9.765625,-31.250000,-193.359375,0.668633
173,-116.699219,46.875000,53.222656,-16.113281,-300.781250,0.672539
174,-410.644531,48.828125,47.851562,7.812500,-188.476562,0.676445
175,-153.808594,7.812500,6.347656,9.277344,12.207031,0.680351
176,309.570312,-19.042969,-24.902344,-31.250000,23.437500,0.684258
177,358.886719,11.718750,-3.906250,-59.082031,-137.695312,0.688164
178,-59.570312,51.269531,54.687500,-20.996094,-254.394531,0.692070
179,-400.878906,43.457031,52.734375,3.417969,-145.996094,0.695976
180,-213.867188,16.601562,3.417969,-2.929688,26.855469,0.695775
181,274.902344,3.417969,-19.531250,-23.925781,24.902344,0.699682
182,393.554688,20.019531,-1.953125,-47.363281,-107.421875,0.703588
183,-2.929688,49.316406,38.085938,-35.156250,-232.910156,0.707494
184,-382.324219,48.828125,40.527344,-6.835938,-158.203125,0.711400
185,-237.304688,32.226562,13.183594,20.507812,12.695312,0.715307
186,240.234375,8.300781,-17.089844,-3.417969,37.109375,0.719213
187,402.343750,1.953125,-18.554688,-51.269531,-91.308594,0.723119
188,76.660156,43.945312,43.945312,-25.390625,-260.742188,0.727025
189,-342.773438,55.175781,62.011719,9.765625,-207.519531,0.730932
190,-298.828125,27.832031,13.183594,9.277344,-18.554688,0.734838
191,182.617188,2.441406,-18.066406,-5.371094,46.875000,0.738744
192,414.062500,-0.976562,-12.207031,-38.574219,-81.542969,0.753085
193,109.863281,38.574219,27.832031,-39.550781,-253.906250,0.756991
194,-327.148438,67.382812,55.175781,-2.441406,-240.722656,0.760897
195,-327.636719,44.921875,33.203125,16.601562,-63.964844,0.764803
196,123.535156,4.394531,-6.835938,-1.464844,29.785156,0.768710
197,410.644531,1.953125,-4.394531,-27.343750,-74.218750,0.772616
198,168.457031,39.062500,39.062500,-36.132812,-236.816406,0.776522
199,-292.480469,64.453125,68.847656,1.953125,-265.625000,0.780428
200,-370.117188,33.691406,27.343750,16.113281,-140.625000,0.784335
201,61.035156,4.394531,-14.160156,-0.488281,-28.320312,0.788241
202,392.089844,1.953125,-20.019531,-33.691406,-75.683594,0.792147
203,212.890625,31.738281,20.996094,-41.503906,-230.468750,0.796053
204,-262.695312,56.152344,50.292969,-11.230469,-277.343750,0.793855
205,-408.691406,36.132812,26.855469,6.835938,-123.535156,0.797762
206,-5.859375,8.300781,0.488281,4.882812,-1.464844,0.801668
207,371.582031,-5.371094,-14.160156,-34.179688,-66.406250,0.805574
208,249.511719,21.972656,17.578125,-44.921875,-212.402344,0.809480
209,-214.843750,54.199219,57.128906,-10.742188,-282.226562,0.813387
210,-415.039062,46.386719,42.968750,16.601562,-140.625000,0.817293
211,-66.406250,19.042969,2.929688,10.253906,8.300781,0.821199
212,347.656250,-1.464844,-24.902344,-44.921875,-33.691406,0.825105
213,297.363281,17.089844,3.906250,-60.546875,-194.335938,0.829012
214,-150.878906,60.058594,63.964844,-12.207031,-285.156250,0.832918
215,-416.992188,46.386719,45.410156,8.789062,-197.265625,0.836824
216,-132.812500,-0.488281,-11.230469,-8.300781,-32.226562,0.833163
217,322.753906,-6.835938,-22.460938,-38.085938,-34.667969,0.837069
218,324.707031,20.019531,0.000000,-60.546875,-175.292969,0.840976
219,-113.281250,52.734375,43.457031,-33.203125,-263.183594,0.844882
220,-406.250000,53.710938,48.339844,8.789062,-191.894531,0.848788
221,-172.363281,28.320312,15.625000,17.089844,-42.968750,0.852694
222,291.992188,8.789062,-11.718750,-22.460938,-58.593750,0.856601
223,351.074219,17.578125,-5.371094,-62.988281,-198.242188,0.860507
224,-48.339844,65.429688,50.292969,-30.761719,-300.292969,0.864413
225,-395.996094,73.730469,50.292969,-1.464844,-262.695312,0.868319
226,-237.792969,22.949219,-15.136719,-17.089844,-69.824219,0.872226
227,245.605469,4.394531,-31.250000,-41.992188,17.578125,0.876132
228,358.398438,18.066406,-5.371094,-76.660156,-108.398438,0.893230
229,-22.949219,54.199219,32.226562,-67.871094,-258.789062,0.897137
230,-414.062500,69.335938,41.992188,-41.992188,-203.613281,0.901043
231,-313.964844,46.875000,14.648438,-36.132812,-32.226562,0.904949
232,167.968750,24.414062,-14.648438,-55.664062,12.207031,0.908855
233,356.933594,27.832031,-7.812500,-85.937500,-118.652344,0.912762
234,26.367188,71.289062,50.292969,-79.101562,-278.808594,0.916668
235,-409.179688,86.914062,69.335938,-55.664062,-233.398438,0.920574
236,-395.507812,47.363281,20.996094,-61.035156,-63.964844,0.924480
237,69.824219,27.343750,-8.789062,-77.636719,-20.019531,0.928387
238,315.917969,38.085938,0.976562,-118.652344,-114.257812,0.932293
239,33.691406,63.964844,44.921875,-124.023438,-233.886719,0.936199
240,-421.386719,81.054688,69.824219,-87.402344,-232.910156,0.933613
241,-443.847656,64.941406,53.710938,-61.523438,-96.191406,0.937519
242,5.859375,34.667969,16.601562,-75.683594,-26.855469,0.941426
243,304.687500,29.785156,-0.488281,-117.675781,-119.628906,0.945332
244,90.820312,72.753906,48.339844,-115.234375,-265.625000,0.949238
245,-383.789062,100.097656,87.402344,-81.054688,-267.089844,0.953144
246,-480.957031,71.289062,58.593750,-64.941406,-114.746094,0.957051
247,-64.453125,34.179688,12.695312,-81.542969,-2.441406,0.960957
248,276.855469,26.367188,0.488281,-122.070312,-98.144531,0.964863
249,141.113281,65.429688,49.316406,-109.863281,-275.878906,0.968769
250,-329.101562,91.308594,92.773438,-68.359375,-298.339844,0.972676
251,-514.160156,57.617188,55.175781,-73.242188,-167.968750,0.976582
252,-133.300781,25.390625,11.718750,-79.101562,-6.835938,0.972863
253,273.925781,17.089844,8.300781,-100.585938,-53.222656,0.976769
254,195.312500,53.710938,55.175781,-94.726562,-250.488281,0.980675
255,-286.132812,84.960938,87.402344,-74.707031,-320.312500,0.984581
256,-515.136719,65.917969,62.500000,-65.429688,-177.246094,0.988488
257,-166.503906,41.992188,38.085938,-42.968750,-26.367188,0.992394
258,253.417969,17.578125,8.300781,-89.355469,-65.917969,0.996300
259,212.402344,27.832031,21.972656,-123.535156,-234.375000,1.000206
260,-214.843750,78.613281,86.914062,-74.707031,-370.605469,1.004113
261,-501.464844,64.941406,69.824219,-59.570312,-241.699219,1.008019
262,-253.417969,17.578125,11.230469,-68.847656,-40.039062,1.011925
263,216.796875,1.953125,-6.347656,-90.332031,-43.457031,1.015831
264,261.718750,29.296875,20.996094,-104.980469,-208.984375,1.033014
265,-169.433594,68.847656,67.382812,-82.519531,-307.128906,1.036920
266,-494.140625,60.546875,61.523438,-60.058594,-198.242188,1.040826
267,-273.437500,29.785156,18.554688,-43.945312,-42.968750,1.044732
268,217.773438,16.113281,0.976562,-59.570312,-29.785156,1.048639
269,314.941406,29.785156,26.367188,-85.449219,-183.593750,1.052545
270,-89.355469,63.964844,70.800781,-69.335938,-336.425781,1.056451
271,-459.960938,67.382812,72.753906,-43.945312,-277.343750,1.060357
272,-332.031250,22.460938,17.578125,-52.734375,-79.101562,1.064264
273,170.410156,2.441406,-10.253906,-63.476562,9.765625,1.068170
274,336.425781,15.625000,6.835938,-87.890625,-90.820312,1.072076
275,-39.550781,44.433594,48.339844,-85.449219,-245.605469,1.075982
276,-442.871094,57.128906,65.917969,-47.363281,-216.308594,1.073395
277,-354.003906,36.621094,42.968750,-26.855469,-45.410156,1.077301
278,124.023438,4.394531,17.089844,-52.246094,39.550781,1.081207
279,334.472656,10.253906,19.042969,-87.402344,-93.261719,1.085113
280,27.832031,46.875000,55.175781,-75.683594,-294.921875,1.089020
281,-396.484375,59.082031,77.148438,-26.855469,-277.343750,1.092926
282,-367.187500,38.085938,47.363281,-1.464844,-107.910156,1.096832
283,81.542969,9.765625,7.812500,-29.785156,0.488281,1.100738
284,332.519531,1.953125,2.441406,-84.472656,-79.101562,1.104645
285,103.027344,44.433594,60.058594,-63.476562,-239.746094,1.108551
286,-342.773438,72.753906,97.167969,-12.207031,-242.675781,1.112457
287,-423.828125,33.691406,47.363281,-16.601562,-78.125000,1.116363
288,1.953125,-4.394531,-2.929688,-42.968750,48.828125,1.113285
289,336.914062,0.488281,-4.394531,-69.824219,-44.433594,1.117191
290,149.902344,38.085938,40.527344,-60.058594,-288.574219,1.121097
291,-332.519531,54.687500,65.917969,-44.921875,-302.734375,1.125004
292,-446.777344,39.062500,49.316406,-18.066406,-118.652344,1.128910
293,-26.367188,20.507812,22.949219,-4.882812,11.230469,1.132816
294,329.589844,0.488281,-0.976562,-54.687500,-29.785156,1.136722
295,201.171875,19.531250,32.226562,-63.476562,-201.171875,1.140629
296,-251.464844,59.570312,80.566406,-19.042969,-295.898438,1.144535
297,-454.101562,41.503906,44.433594,-18.554688,-160.644531,1.148441
298,-107.421875,4.882812,-4.882812,-35.644531,8.789062,1.152347
299,304.687500,-1.464844,-10.253906,-68.359375,-38.574219,1.156254
300,242.675781,29.296875,29.296875,-73.242188,-236.328125,1.173024
301,-225.097656,56.640625,62.988281,-47.363281,-321.777344,1.176931
302,-464.355469,43.945312,45.898438,-33.203125,-173.828125,1.180837
303,-152.832031,16.113281,11.230469,-21.484375,15.625000,1.184743
304,282.714844,1.953125,-8.300781,-46.875000,-12.695312,1.188649
305,281.250000,23.925781,22.460938,-62.988281,-203.613281,1.192556
306,-146.484375,60.058594,78.125000,-21.972656,-353.515625,1.196462
307,-441.406250,49.804688,65.917969,-7.812500,-273.437500,1.200368
308,-212.890625,14.160156,14.160156,-22.460938,-74.218750,1.204274
309,262.207031,-4.882812,-7.812500,-50.292969,-51.757812,1.208181
310,331.054688,10.253906,12.695312,-71.289062,-215.332031,1.212087
311,-97.656250,42.480469,52.246094,-51.269531,-353.027344,1.215993
312,-440.429688,45.410156,54.199219,-25.390625,-272.460938,1.213900
313,-245.117188,25.878906,20.019531,-12.695312,-90.332031,1.217806
314,241.699219,10.253906,-3.417969,-34.667969,-67.871094,1.221713
315,357.910156,18.554688,12.207031,-64.941406,-233.398438,1.225619
316,-29.785156,50.781250,47.363281,-50.781250,-317.382812,1.229525
317,-401.855469,63.476562,54.687500,-16.113281,-218.750000,1.233431
318,-287.109375,41.503906,25.390625,-9.277344,-86.425781,1.237338
319,186.523438,14.648438,-6.347656,-41.503906,-53.222656,1.241244
320,358.398438,14.160156,-6.347656,-85.937500,-164.550781,1.245150
321,31.738281,59.082031,49.804688,-61.523438,-305.175781,1.249056
322,-378.417969,73.242188,71.289062,-18.066406,-278.808594,1.252963
323,-345.214844,33.691406,19.042969,-24.414062,-98.632812,1.256869
324,135.253906,8.300781,-12.207031,-46.386719,-3.906250,1.253460
325,381.347656,19.531250,-5.859375,-74.707031,-103.515625,1.257366
326,87.890625,54.199219,34.667969,-66.406250,-262.695312,1.261273
327,-351.562500,66.894531,55.664062,-32.714844,-229.003906,1.265179
328,-337.402344,54.199219,34.179688,5.859375,-59.082031,1.269085
329,117.187500,24.414062,-2.929688,-7.812500,10.253906,1.272991
330,395.019531,15.625000,-13.671875,-56.640625,-73.730469,1.276898
331,175.781250,50.781250,27.343750,-46.386719,-224.121094,1.280804
332,-278.320312,78.125000,68.359375,4.394531,-245.605469,1.284710
333,-373.535156,47.363281,29.296875,9.277344,-91.796875,1.288616
334,40.039062,5.859375,-21.484375,-13.671875,47.851562,1.292523
335,390.136719,5.859375,-17.089844,-29.785156,-39.550781,1.296429
336,217.773438,35.644531,18.066406,-30.273438,-188.964844,1.313308
337,-267.578125,64.453125,44.433594,-8.789062,-200.195312,1.317214
338,-397.460938,59.570312,24.414062,21.972656,-77.636719,1.321120
339,0.488281,26.367188,-7.812500,18.066406,21.972656,1.325027
340,354.003906,11.230469,-21.484375,-38.085938,-71.289062,1.328933
341,244.140625,41.503906,13.183594,-42.968750,-223.144531,1.332839
342,-203.613281,75.683594,59.082031,3.906250,-259.765625,1.336745
343,-426.757812,52.734375,30.761719,8.300781,-131.835938,1.340652
344,-102.539062,15.136719,-14.160156,-8.789062,35.644531,1.344558
345,317.871094,6.835938,-20.507812,-46.386719,-42.480469,1.348464
346,264.648438,21.972656,4.882812,-67.871094,-233.886719,1.352370
347,-183.593750,51.269531,43.457031,-31.250000,-259.277344,1.356277
348,-436.035156,50.292969,32.226562,-9.765625,-119.628906,1.353396
349,-145.507812,26.855469,-2.441406,-7.324219,0.488281,1.357302
350,295.898438,5.371094,-23.925781,-49.316406,-27.832031,1.361208
351,309.082031,22.460938,-0.976562,-82.031250,-202.636719,1.365115
352,-126.953125,55.664062,37.597656,-54.199219,-332.519531,1.369021
353,-440.429688,55.664062,40.527344,-15.625000,-206.054688,1.372927
354,-209.472656,31.250000,8.789062,-9.765625,-43.457031,1.376833
355,262.207031,2.929688,-22.460938,-41.015625,-28.320312,1.380740
356,345.703125,10.742188,-5.371094,-55.175781,-175.292969,1.384646
357,-38.574219,61.523438,49.804688,-14.648438,-327.148438,1.388552
358,-393.066406,71.777344,53.222656,12.695312,-218.750000,1.392458
359,-247.070312,29.785156,-0.976562,2.441406,-23.925781,1.396365
360,238.769531,11.718750,-23.437500,-8.789062,1.464844,1.397691
361,375.488281,22.460938,-14.160156,-42.480469,-148.437500,1.401598
362,13.671875,53.710938,25.878906,-30.273438,-282.714844,1.405504
363,-369.628906,62.988281,41.503906,11.230469,-199.707031,1.409410
364,-274.902344,39.550781,13.183594,21.972656,-40.527344,1.413316
365,206.542969,19.042969,-4.882812,1.464844,-29.785156,1.417223
366,395.019531,14.648438,-9.277344,-45.898438,-148.925781,1.421129
367,69.335938,48.828125,37.109375,-35.156250,-272.460938,1.425035
368,-353.027344,62.011719,56.152344,3.417969,-237.304688,1.428941
369,-329.101562,24.902344,7.812500,1.953125,-54.687500,1.432848
370,144.531250,5.371094,-22.460938,-13.671875,29.296875,1.436754
371,395.507812,14.160156,-20.996094,-53.710938,-96.191406,1.440660
372,119.628906,48.828125,21.484375,-62.500000,-264.160156,1.453399
373,-336.914062,65.917969,42.480469,-31.250000,-227.539062,1.457305
374,-374.511719,43.945312,17.578125,-7.812500,-59.082031,1.461211
375,68.359375,13.671875,-6.835938,-14.160156,30.273438,1.465117
376,376.953125,1.953125,-7.812500,-44.433594,-63.476562,1.469024
377,176.757812,39.062500,23.925781,-41.503906,-252.929688,1.472930
378,-277.343750,78.613281,59.570312,7.812500,-292.968750,1.476836
379,-399.902344,46.875000,24.902344,3.417969,-131.835938,1.480742
380,-16.113281,2.441406,-27.343750,-32.226562,2.441406,1.484649
381,347.167969,3.906250,-26.367188,-56.640625,-82.031250,1.488555
382,219.726562,34.667969,20.507812,-44.921875,-287.597656,1.492461
383,-254.882812,52.246094,47.851562,-18.066406,-302.734375,1.496367
384,-415.039062,37.597656,25.390625,2.441406,-87.402344,1.493349
385,-36.132812,9.277344,-6.835938,6.347656,28.808594,1.497256
386,351.074219,-3.417969,-24.414062,-33.691406,-12.695312,1.501162
387,263.671875,28.320312,10.742188,-42.480469,-165.527344,1.505068
388,-208.496094,57.617188,48.828125,-17.578125,-239.257812,1.508974
389,-418.457031,47.363281,43.457031,12.695312,-122.558594,1.512881
390,-82.031250,18.554688,9.277344,22.949219,8.300781,1.516787
391,333.984375,0.488281,-20.996094,-23.437500,-10.742188,1.520693
392,290.039062,18.066406,-3.417969,-62.988281,-174.804688,1.524599
393,-151.855469,58.593750,54.199219,-25.390625,-278.320312,1.528506
394,-423.339844,53.222656,53.222656,7.812500,-215.332031,1.532412
395,-170.898438,13.671875,-4.882812,-9.765625,-48.339844,1.536318
396,282.714844,-6.347656,-30.273438,-41.992188,-24.414062,1.533334
397,323.242188,10.742188,-5.371094,-65.917969,-204.101562,1.537240
398,-100.585938,51.269531,40.039062,-48.339844,-307.617188,1.541146
399,-425.781250,53.222656,43.945312,-11.230469,-186.523438,1.545052
400,-211.914062,26.367188,9.765625,7.812500,-22.460938,1.548959
401,269.042969,12.207031,-7.324219,-13.183594,-24.902344,1.552865
402,349.609375,20.996094,0.000000,-61.523438,-143.554688,1.556771
403,-39.062500,62.500000,52.246094,-37.597656,-279.785156,1.560677
404,-403.320312,62.500000,61.035156,-1.464844,-224.609375,1.564584
405,-267.089844,23.925781,11.230469,-2.441406,-41.503906,1.568490
406,219.238281,2.441406,-9.277344,-17.089844,-20.507812,1.572396
407,362.792969,2.929688,-7.812500,-65.429688,-125.000000,1.576302
408,18.066406,52.246094,40.527344,-50.292969,-228.027344,1.593319
409,-382.324219,66.406250,55.664062,-7.812500,-186.035156,1.597225
410,-302.246094,34.667969,27.343750,7.324219,-55.664062,1.601131
411,164.062500,6.347656,4.882812,-17.578125,-38.085938,1.605037
412,368.164062,4.882812,9.277344,-58.593750,-154.785156,1.608944
413,87.402344,49.804688,62.988281,-36.621094,-294.921875,1.612850
414,-336.425781,64.453125,79.101562,3.417969,-268.066406,1.616756
415,-336.914062,30.273438,30.273438,4.882812,-110.351562,1.620662
416,119.140625,4.882812,-2.929688,-19.042969,-13.671875,1.624569
417,379.394531,3.906250,4.882812,-60.058594,-100.097656,1.628475
418,124.511719,38.574219,45.410156,-55.175781,-262.695312,1.632381
419,-333.496094,61.035156,64.453125,-22.949219,-267.089844,1.636287
420,-381.347656,40.527344,45.898438,-1.464844,-142.089844,1.638377
421,53.710938,8.300781,12.207031,-7.812500,-62.011719,1.642284
422,362.304688,0.976562,-8.789062,-47.851562,-138.671875,1.646190
423,179.199219,39.550781,39.062500,-47.851562,-322.265625,1.650096
424,-293.457031,64.453125,77.636719,-15.136719,-334.960938,1.654002
425,-405.761719,48.339844,54.199219,11.718750,-102.050781,1.657909
426,4.394531,22.949219,19.531250,15.136719,36.132812,1.661815
427,354.003906,4.394531,-2.441406,-33.203125,-47.851562,1.665721
428,229.003906,29.296875,28.320312,-55.664062,-220.214844,1.669627
429,-229.003906,70.800781,77.636719,-10.742188,-254.882812,1.673534
430,-419.433594,48.339844,55.175781,9.277344,-85.937500,1.677440
431,-58.593750,9.277344,15.136719,8.789062,36.132812,1.681346
432,354.980469,3.417969,9.277344,-21.484375,-48.828125,1.673302
433,280.761719,29.785156,32.714844,-52.246094,-225.585938,1.677208
434,-183.105469,62.500000,65.917969,-30.273438,-247.558594,1.681115
435,-418.457031,65.917969,70.800781,4.882812,-127.441406,1.685021
436,-108.398438,40.527344,43.457031,10.253906,-7.812500,1.688927
437,327.636719,11.230469,24.414062,-23.437500,-37.597656,1.692833
438,309.082031,20.996094,41.503906,-58.105469,-201.171875,1.696740
439,-116.699219,63.476562,89.843750,-24.414062,-312.988281,1.700646
440,-399.414062,63.964844,86.425781,11.230469,-241.699219,1.704552
441,-177.734375,19.042969,25.878906,-7.812500,-74.707031,1.708458
442,270.996094,-2.929688,4.882812,-47.851562,-6.835938,1.712365
443,331.054688,15.625000,28.320312,-74.218750,-127.929688,1.716271
444,-77.148438,53.222656,72.753906,-44.921875,-298.339844,1.733062
445,-416.015625,53.222656,73.730469,-13.183594,-205.566406,1.736968
446,-223.144531,26.855469,42.480469,8.300781,-33.691406,1.740875
447,249.511719,8.300781,15.136719,-19.531250,-10.742188,1.744781
448,363.281250,19.531250,23.925781,-52.734375,-101.074219,1.748687
449,4.394531,63.476562,81.054688,-20.996094,-283.203125,1.752593
450,-369.140625,68.359375,94.238281,11.230469,-251.953125,1.756500
451,-270.996094,31.250000,50.292969,7.324219,-62.011719,1.760406
452,206.542969,4.394531,18.554688,-22.949219,-39.062500,1.764312
453,386.718750,4.394531,26.855469,-51.269531,-159.667969,1.768218
454,62.500000,49.804688,82.519531,-21.484375,-282.226562,1.772125
455,-342.773438,68.359375,99.121094,14.648438,-270.507812,1.776031
456,-304.199219,28.808594,49.316406,10.742188,-108.398438,1.773011
457,160.644531,5.859375,16.113281,-4.882812,-1.953125,1.776917
458,389.160156,11.230469,11.718750,-44.921875,-88.378906,1.780823
459,102.050781,42.968750,55.175781,-42.480469,-246.093750,1.784729
460,-345.703125,58.593750,80.078125,-9.277344,-250.976562,1.788636
461,-350.097656,38.574219,56.152344,23.437500,-94.726562,1.792542
462,113.281250,12.207031,21.972656,13.183594,-2.929688,1.796448
463,392.089844,4.394531,6.347656,-40.527344,-103.027344,1.800354
464,157.714844,33.691406,42.968750,-46.875000,-256.347656,1.804261
465,-290.039062,63.476562,81.542969,1.953125,-272.949219,1.808167
466,-374.511719,40.039062,47.851562,12.207031,-139.648438,1.812073
467,41.503906,6.347656,0.976562,-7.812500,-31.738281,1.815979
468,380.371094,-0.976562,-5.371094,-39.062500,-80.566406,1.815660
469,211.914062,31.738281,38.085938,-47.851562,-250.000000,1.819566
470,-252.441406,62.011719,75.195312,-13.671875,-314.453125,1.823472
471,-393.554688,43.457031,45.410156,13.183594,-140.625000,1.827379
472,-3.906250,19.042969,6.835938,16.601562,58.593750,1.831285
473,380.859375,14.648438,3.417969,-9.277344,-15.625000,1.835191
474,260.742188,29.785156,28.808594,-39.550781,-225.585938,1.839097
475,-191.894531,69.335938,79.101562,2.929688,-300.292969,1.843004
476,-399.902344,54.687500,61.035156,20.019531,-179.199219,1.846910
477,-78.125000,9.277344,5.371094,-5.859375,-4.882812,1.850816
478,352.050781,4.882812,-3.417969,-28.808594,-27.832031,1.854722
479,298.339844,27.832031,19.042969,-48.339844,-182.128906,1.858629
480,-161.621094,61.035156,57.128906,-25.390625,-257.324219,1.877776
481,-419.921875,61.523438,59.082031,5.371094,-118.164062,1.881682
482,-145.996094,20.996094,15.625000,-6.835938,63.476562,1.885588
483,302.734375,-5.859375,-13.671875,-41.992188,34.179688,1.889494
484,320.312500,15.136719,4.394531,-50.292969,-147.460938,1.893401
485,-105.468750,66.406250,64.941406,-14.648438,-252.929688,1.897307
486,-414.550781,63.476562,63.964844,2.441406,-193.359375,1.901213
487,-202.636719,14.160156,-9.765625,-19.531250,-13.671875,1.905119
488,268.066406,-5.859375,-32.226562,-37.109375,-19.531250,1.909026
489,347.656250,11.230469,-2.929688,-56.152344,-187.988281,1.912932
490,-56.640625,49.804688,39.550781,-41.503906,-270.996094,1.916838
491,-406.250000,55.175781,41.503906,-5.859375,-185.546875,1.920744
492,-235.351562,25.878906,8.789062,12.207031,-47.363281,1.913408
493,245.605469,4.394531,-19.042969,-12.695312,-51.269531,1.917314
494,390.625000,14.160156,-6.835938,-34.667969,-173.339844,1.921220
495,23.925781,44.921875,33.691406,-29.785156,-327.148438,1.925126
496,-365.234375,55.175781,45.410156,-2.929688,-290.039062,1.929033
497,-259.277344,34.667969,15.625000,19.531250,-108.398438,1.932939
498,216.796875,7.324219,-16.113281,-7.324219,-52.734375,1.936845
499,395.507812,2.929688,-20.507812,-54.199219,-169.433594,1.940751
500,74.707031,44.921875,28.320312,-38.574219,-272.949219,1.944658
501,-329.589844,74.218750,67.871094,11.230469,-208.984375,1.948564
502,-327.148438,31.738281,16.601562,-4.394531,-68.359375,1.952470
503,129.394531,-6.835938,-30.273438,-29.296875,13.671875,1.956376
504,391.113281,1.953125,-19.531250,-50.781250,-101.074219,1.973083
505,110.839844,34.667969,22.949219,-58.105469,-267.089844,1.976990
506,-329.101562,55.664062,43.945312,-12.207031,-257.324219,1.980896
507,-354.980469,38.085938,12.695312,15.136719,-105.957031,1.984802
508,76.660156,8.789062,-12.695312,-6.835938,-15.625000,1.988708
509,374.023438,8.300781,-6.835938,-39.550781,-125.488281,1.992615
510,169.433594,38.085938,23.437500,-41.503906,-295.410156,1.996521
511,-273.925781,70.800781,65.917969,3.906250,-298.339844,2.000427
512,-397.949219,42.968750,35.156250,5.371094,-126.464844,2.004333
513,-13.671875,-5.371094,-16.601562,-27.832031,-6.835938,2.008240
514,353.027344,-7.324219,-13.671875,-48.828125,-102.539062,2.012146
515,211.425781,27.832031,21.484375,-52.246094,-256.835938,2.016052
516,-246.093750,53.222656,50.781250,-12.695312,-273.925781,2.012969
517,-399.902344,34.667969,31.738281,17.578125,-145.996094,2.016875
518,-25.878906,6.347656,-0.488281,10.253906,-46.386719,2.020782
519,358.398438,-0.488281,-15.625000,-28.808594,-78.125000,2.024688
520,264.648438,31.738281,17.578125,-46.875000,-212.402344,2.028594
521,-196.289062,60.546875,59.570312,-16.113281,-291.015625,2.032500
522,-405.273438,49.804688,45.898438,20.996094,-181.640625,2.036407
523,-81.054688,16.601562,0.000000,15.136719,-54.199219,2.040313
524,331.054688,-0.976562,-18.554688,-29.785156,-89.843750,2.044219
525,285.156250,15.625000,4.882812,-59.570312,-239.257812,2.048125
526,-141.601562,60.058594,60.546875,-6.347656,-293.457031,2.052032
527,-408.691406,59.082031,54.687500,24.414062,-221.679688,2.055938
528,-173.828125,8.789062,-9.277344,-12.207031,-78.125000,2.054195
529,291.503906,-5.859375,-20.507812,-37.109375,-38.574219,2.058101
530,334.472656,16.113281,6.835938,-52.734375,-178.222656,2.062007
531,-103.027344,48.339844,44.921875,-37.109375,-273.925781,2.065914
532,-420.410156,45.898438,46.386719,-0.976562,-175.781250,2.069820
533,-192.871094,20.996094,20.507812,33.203125,-7.324219,2.073726
534,270.019531,-3.417969,-7.324219,1.953125,23.925781,2.077632
535,337.890625,-0.488281,-1.953125,-49.804688,-133.789062,2.081539
536,-40.527344,46.386719,60.058594,-16.113281,-279.296875,2.085445
537,-384.277344,57.617188,68.847656,23.925781,-209.472656,2.089351
538,-264.160156,18.066406,5.859375,10.253906,-8.789062,2.093257
539,216.308594,-3.417969,-20.019531,-14.160156,10.253906,2.097164
540,379.394531,4.394531,-12.207031,-51.757812,-154.296875,2.095286
541,37.597656,47.851562,35.156250,-31.738281,-279.785156,2.099193
542,-355.468750,60.546875,48.339844,5.371094,-253.417969,2.103099
543,-274.902344,30.273438,13.183594,13.671875,-105.957031,2.107005
544,207.031250,9.277344,-13.183594,-1.953125,-23.437500,2.110911
545,409.667969,14.648438,-13.671875,-45.898438,-139.160156,2.114818
546,94.726562,50.781250,30.273438,-51.757812,-280.761719,2.118724
547,-333.496094,64.941406,61.523438,-10.742188,-249.511719,2.122630
548,-330.566406,26.855469,17.089844,-1.953125,-112.792969,2.126536
549,121.582031,-3.417969,-31.250000,-20.019531,-20.507812,2.130443
550,385.742188,2.441406,-24.414062,-51.269531,-104.980469,2.134349
551,129.882812,39.062500,20.019531,-54.199219,-244.140625,2.138255
552,-328.613281,55.664062,44.433594,-15.625000,-217.285156,2.153292
553,-372.070312,28.320312,20.507812,12.207031,-88.378906,2.157199
554,59.082031,0.000000,-13.671875,0.488281,35.644531,2.161105
555,363.281250,-2.441406,-17.089844,-40.527344,-27.343750,2.165011
556,175.292969,25.878906,27.343750,-44.433594,-253.417969,2.168917
557,-261.230469,61.523438,70.312500,16.601562,-315.429688,2.172824
558,-384.765625,43.457031,34.179688,27.832031,-133.789062,2.176730
559,-7.812500,0.976562,-20.507812,-9.277344,16.601562,2.180636
560,357.421875,-3.417969,-20.996094,-43.457031,-54.199219,2.184542
561,220.703125,26.367188,11.718750,-60.546875,-214.355469,2.188449
562,-240.234375,55.664062,45.410156,-22.460938,-267.089844,2.192355
563,-410.156250,43.457031,35.156250,5.371094,-151.367188,2.196261
564,-50.781250,17.089844,2.929688,4.882812,-33.203125,2.193442
565,344.726562,-0.488281,-16.601562,-34.179688,-57.128906,2.197348
566,270.507812,20.507812,9.765625,-52.246094,-197.753906,2.201254
567,-189.941406,46.875000,46.386719,-19.531250,-274.902344,2.205160
568,-415.527344,40.039062,41.992188,14.648438,-161.621094,2.209067
569,-94.726562,19.531250,16.113281,26.367188,-15.136719,2.212973
570,324.707031,-2.929688,-11.230469,-23.437500,-22.460938,2.216879
571,292.968750,6.347656,0.488281,-65.917969,-175.292969,2.220785
572,-130.859375,51.757812,58.105469,-20.996094,-314.453125,2.224692
573,-413.574219,52.734375,59.570312,8.300781,-222.656250,2.228598
574,-193.359375,4.882812,-4.394531,-19.042969,-26.855469,2.232504
575,280.273438,-8.789062,-21.972656,-34.667969,-53.222656,2.236410
576,345.703125,12.207031,2.929688,-44.433594,-196.777344,2.253464
577,-76.171875,47.363281,42.968750,-24.414062,-294.921875,2.257370
578,-424.316406,51.757812,50.292969,-0.488281,-220.214844,2.261276
579,-233.398438,23.437500,22.460938,6.835938,-84.472656,2.265182
580,254.394531,-0.976562,2.929688,-5.859375,-80.078125,2.269089
581,372.070312,9.765625,13.671875,-24.902344,-192.871094,2.272995
582,-0.976562,49.804688,54.687500,-5.859375,-291.992188,2.276901
583,-380.371094,52.734375,60.546875,17.089844,-210.937500,2.280807
584,-272.949219,12.695312,11.230469,9.765625,-16.601562,2.284714
585,215.332031,-8.300781,-13.183594,-8.300781,13.671875,2.288620
586,388.671875,0.000000,-3.906250,-41.992188,-134.765625,2.292526
587,45.898438,35.644531,38.574219,-38.085938,-251.953125,2.296432
588,-359.863281,53.710938,61.523438,-1.953125,-192.871094,2.293400
589,-303.222656,22.949219,24.414062,9.765625,-48.828125,2.297307
590,173.828125,-0.488281,-8.300781,-5.371094,4.882812,2.301213
591,392.089844,3.906250,-2.441406,-42.480469,-102.539062,2.305119
592,92.773438,34.667969,42.968750,-44.921875,-255.859375,2.309025
593,-328.613281,58.105469,70.312500,0.976562,-236.816406,2.312932
594,-334.960938,37.109375,43.945312,24.902344,-98.632812,2.316838
595,112.792969,1.464844,3.906250,-3.906250,-41.015625,2.320744
596,397.949219,-2.929688,-1.953125,-46.386719,-147.460938,2.324650
597,159.179688,33.203125,39.062500,-46.386719,-277.832031,2.328557
598,-284.667969,70.312500,85.937500,5.371094,-299.804688,2.332463
599,-373.046875,41.992188,51.269531,6.835938,-177.734375,2.336369
600,34.179688,-0.976562,-5.371094,-24.414062,-25.390625,2.337954
601,379.882812,4.394531,-1.953125,-36.132812,-68.359375,2.341860
602,206.054688,33.691406,30.273438,-40.527344,-249.511719,2.345767
603,-262.207031,57.128906,55.664062,-14.160156,-295.898438,2.349673
604,-401.367188,41.992188,37.597656,5.859375,-130.859375,2.353579
605,-4.882812,15.625000,8.789062,7.324219,-24.902344,2.357485
606,370.605469,1.953125,-1.464844,-20.507812,-120.117188,2.361392
607,241.699219,16.113281,13.671875,-49.804688,-252.441406,2.365298
608,-203.125000,65.429688,65.917969,-0.976562,-319.824219,2.369204
609,-409.667969,52.734375,55.664062,20.019531,-209.960938,2.373110
610,-87.890625,4.394531,-0.976562,-10.253906,-28.808594,2.377017
611,343.261719,4.394531,-8.300781,-29.785156,-55.175781,2.380923
612,279.785156,23.437500,16.601562,-50.292969,-227.539062,2.393009
613,-179.199219,49.316406,48.828125,-28.320312,-305.664062,2.396916
614,-409.667969,46.386719,45.898438,10.742188,-166.992188,2.400822
615,-120.605469,13.183594,10.253906,18.066406,-1.464844,2.404728
616,314.941406,2.441406,-4.394531,-12.207031,-44.433594,2.408634
617,314.453125,20.507812,13.671875,-53.222656,-173.828125,2.412541
618,-115.234375,58.105469,54.687500,-31.250000,-260.253906,2.416447
619,-406.250000,60.546875,62.988281,7.812500,-205.566406,2.420353
620,-191.894531,13.183594,5.371094,-10.742188,-34.667969,2.424259
621,274.414062,-7.812500,-20.507812,-42.968750,-4.882812,2.428166
622,343.750000,10.253906,0.976562,-62.011719,-162.597656,2.432072
623,-58.593750,47.851562,43.945312,-39.550781,-290.039062,2.435978
624,-395.507812,51.757812,50.781250,-6.347656,-216.308594,2.432978
625,-221.679688,25.878906,14.648438,13.183594,-49.316406,2.436884
626,258.300781,6.347656,-8.789062,-6.835938,-30.761719,2.440790
627,385.253906,13.671875,2.441406,-36.621094,-185.546875,2.444697
628,6.835938,50.781250,48.828125,-23.437500,-346.191406,2.448603
629,-380.371094,57.617188,62.011719,7.324219,-252.929688,2.452509
630,-266.113281,27.343750,23.925781,27.832031,-48.339844,2.456415
631,213.378906,4.394531,-3.906250,10.742188,0.976562,2.460322
632,379.394531,3.417969,-8.789062,-47.851562,-112.304688,2.464228
633,49.804688,37.109375,32.714844,-45.898438,-259.277344,2.468134
634,-333.496094,66.894531,79.101562,24.902344,-239.746094,2.472040
635,-311.035156,33.691406,33.203125,21.972656,-70.312500,2.475947
636,137.207031,-2.441406,-18.066406,-17.578125,18.554688,2.473662
637,395.019531,4.394531,-9.765625,-41.992188,-103.515625,2.477568
638,125.000000,37.597656,28.808594,-41.503906,-255.859375,2.481474
639,-320.312500,58.593750,55.175781,-7.324219,-232.421875,2.485380
640,-354.980469,39.062500,27.832031,-1.953125,-62.988281,2.489287
641,92.773438,12.207031,-1.953125,-15.136719,47.851562,2.493193
642,383.789062,4.394531,-1.953125,-43.457031,-53.222656,2.497099
643,151.855469,27.832031,25.878906,-55.175781,-230.468750,2.501005
644,-291.015625,62.011719,69.824219,-6.835938,-282.714844,2.504912
645,-387.695312,36.132812,43.945312,1.464844,-145.019531,2.508818
646,25.390625,-0.976562,-3.906250,-8.789062,-2.441406,2.512724
647,380.859375,-1.464844,-8.300781,-28.320312,-94.726562,2.516630
648,204.101562,16.113281,18.066406,-62.011719,-254.882812,2.533045
649,-255.859375,44.433594,54.199219,-23.437500,-264.648438,2.536951
650,-403.808594,31.738281,33.203125,9.277344,-129.882812,2.540858
651,-18.066406,6.347656,0.976562,14.648438,-62.011719,2.544764
652,383.789062,-1.953125,-7.324219,-5.859375,-115.722656,2.548670
653,274.902344,16.601562,17.578125,-31.738281,-221.679688,2.552576
654,-179.199219,57.617188,67.382812,4.394531,-275.878906,2.556483
655,-403.320312,45.898438,49.804688,23.925781,-174.804688,2.560389
656,-110.839844,-5.859375,-7.324219,-6.347656,-14.160156,2.564295
657,330.078125,-14.648438,-13.671875,-32.714844,-0.488281,2.568201
658,305.175781,13.671875,13.671875,-47.363281,-179.199219,2.572108
659,-145.996094,46.386719,47.363281,-23.925781,-275.878906,2.576014
660,-412.109375,42.480469,36.621094,0.000000,-154.785156,2.575655
661,-135.742188,19.531250,5.859375,6.347656,-10.253906,2.579561
662,322.265625,3.906250,-10.253906,-19.531250,-62.500000,2.583467
663,320.800781,5.371094,-7.324219,-62.500000,-231.933594,2.587373
664,-108.398438,44.921875,43.945312,-32.714844,-325.683594,2.591280
665,-408.691406,57.128906,61.523438,14.160156,-220.703125,2.595186
666,-212.402344,17.578125,18.554688,10.742188,-39.062500,2.599092
667,254.394531,-10.253906,-16.601562,-25.390625,-19.531250,2.602998
668,350.097656,2.929688,-3.906250,-49.316406,-159.179688,2.606905
669,-24.902344,46.875000,58.593750,-13.183594,-330.078125,2.610811
670,-373.535156,54.687500,72.265625,21.972656,-303.222656,2.614717
671,-246.582031,12.207031,10.742188,11.230469,-83.496094,2.618623
672,237.792969,-9.277344,-17.578125,-5.371094,3.906250,2.612999
673,388.671875,0.000000,-4.394531,-42.968750,-99.121094,2.616905
674,30.761719,42.480469,43.457031,-35.644531,-238.769531,2.620811
675,-365.234375,58.593750,62.988281,3.417969,-219.238281,2.624718
676,-277.343750,28.808594,28.320312,14.648438,-79.589844,2.628624
677,210.937500,8.300781,0.000000,3.417969,-2.441406,2.632530
678,414.550781,9.765625,-1.464844,-31.250000,-95.703125,2.636436
679,89.843750,37.597656,33.691406,-37.597656,-278.320312,2.640343
680,-324.218750,67.382812,76.660156,19.531250,-254.394531,2.644249
681,-313.964844,36.621094,38.085938,20.507812,-98.144531,2.648155
682,129.882812,-4.394531,-17.089844,-20.507812,-47.363281,2.652061
683,391.601562,1.464844,-6.347656,-48.828125,-125.976562,2.655968
684,139.648438,28.808594,31.250000,-44.921875,-245.117188,2.673309
685,-299.316406,48.339844,47.851562,2.441406,-249.023438,2.677216
686,-349.609375,33.203125,27.832031,26.855469,-84.472656,2.681122
687,82.031250,7.324219,6.347656,11.230469,13.183594,2.685028
688,389.160156,5.371094,16.113281,-21.972656,-74.707031,2.688934
689,191.406250,32.226562,64.941406,-25.878906,-227.050781,2.692841
690,-258.789062,63.476562,106.933594,14.160156,-253.417969,2.696747
691,-372.070312,49.316406,82.519531,34.667969,-107.910156,2.700653
692,23.437500,10.742188,29.785156,17.089844,-10.742188,2.704559
693,375.000000,-0.976562,21.484375,-24.902344,-98.144531,2.708466
694,222.656250,19.042969,55.664062,-48.339844,-249.511719,2.712372
695,-240.722656,42.480469,90.332031,-19.531250,-288.085938,2.716278
696,-403.320312,38.085938,83.496094,15.136719,-161.621094,2.713178
697,-39.062500,16.113281,46.386719,12.207031,-65.917969,2.717084
698,355.468750,-0.488281,28.808594,-25.878906,-113.281250,2.720990
699,275.390625,19.531250,54.687500,-41.503906,-284.179688,2.724896
700,-177.246094,55.175781,91.796875,-12.695312,-351.074219,2.728803
701,-396.484375,54.199219,95.703125,19.042969,-226.562500,2.732709
702,-100.097656,18.554688,53.710938,2.441406,-87.402344,2.736615
703,330.566406,0.000000,26.855469,-45.898438,-65.429688,2.740521
704,318.847656,21.972656,47.363281,-70.312500,-224.121094,2.744428
705,-125.000000,62.011719,97.167969,-30.761719,-314.453125,2.748334
706,-401.855469,61.523438,102.539062,0.976562,-187.011719,2.752240
707,-157.714844,24.414062,49.804688,-10.742188,-43.457031,2.756146
708,289.550781,3.906250,22.949219,-43.457031,-59.570312,2.755727
709,328.613281,13.183594,35.156250,-77.636719,-180.175781,2.759633
710,-53.710938,61.035156,90.820312,-23.925781,-277.343750,2.763540
711,-373.046875,65.917969,98.632812,17.089844,-215.820312,2.767446
712,-195.312500,28.808594,51.757812,2.929688,-67.871094,2.771352
713,282.226562,13.183594,38.085938,-14.160156,-69.335938,2.775258
714,371.093750,14.160156,43.457031,-49.804688,-175.781250,2.779165
715,-4.394531,50.292969,84.960938,-22.460938,-282.714844,2.783071
716,-356.933594,64.453125,101.074219,25.390625,-241.699219,2.786977
717,-252.441406,26.855469,50.781250,9.765625,-35.156250,2.790883
718,218.750000,5.371094,26.367188,-16.601562,17.089844,2.794790
719,386.230469,10.742188,40.527344,-41.992188,-139.160156,2.798696
720,45.898438,44.433594,85.937500,-25.878906,-288.085938,2.813015
721,-353.515625,57.128906,103.027344,12.207031,-228.515625,2.816921
722,-290.527344,33.691406,74.707031,30.761719,-87.402344,2.820827
723,169.921875,0.000000,41.992188,-3.417969,-38.574219,2.824734
724,395.507812,-2.929688,44.433594,-41.503906,-101.074219,2.828640
725,101.562500,43.457031,91.796875,-23.437500,-279.296875,2.832546
726,-326.660156,75.195312,131.835938,14.648438,-309.082031,2.836452
727,-341.796875,41.503906,98.632812,10.742188,-131.835938,2.840359
728,97.167969,-3.417969,43.457031,-26.855469,-25.878906,2.844265
729,385.253906,-1.464844,46.875000,-61.523438,-145.996094,2.848171
730,145.507812,32.714844,84.472656,-62.011719,-323.730469,2.852077
731,-297.851562,57.128906,118.164062,-16.601562,-284.667969,2.855984
732,-354.492188,37.109375,94.726562,2.441406,-75.683594,2.853016
733,74.218750,7.324219,54.687500,-1.464844,11.230469,2.856922
734,388.671875,3.417969,53.710938,-33.691406,-105.468750,2.860828
735,187.500000,25.878906,82.519531,-54.687500,-258.300781,2.864735
736,-271.972656,46.386719,110.839844,-22.949219,-280.273438,2.868641
737,-386.718750,39.062500,103.027344,13.671875,-155.273438,2.872547
738,2.441406,14.160156,64.453125,9.765625,-40.039062,2.876453
739,372.558594,8.300781,51.269531,-24.902344,-127.929688,2.880360
740,228.027344,18.554688,64.453125,-58.105469,-249.023438,2.884266
741,-227.539062,56.152344,113.281250,-18.066406,-262.207031,2.888172
742,-397.460938,53.710938,115.234375,14.160156,-183.105469,2.892078
743,-73.242188,4.394531,42.968750,-18.554688,-49.804688,2.895985
744,337.402344,-5.371094,28.320312,-49.804688,-36.621094,2.894970
745,271.972656,19.042969,65.429688,-65.429688,-186.523438,2.898876
746,-184.082031,49.316406,108.886719,-36.132812,-250.000000,2.902782
747,-407.226562,47.363281,101.562500,-5.371094,-151.367188,2.906689
748,-114.257812,24.414062,58.105469,-5.859375,-22.460938,2.910595
749,326.171875,15.136719,47.363281,-20.996094,-35.156250,2.914501
750,309.570312,17.578125,62.500000,-53.710938,-186.523438,2.918407
751,-124.023438,48.828125,106.445312,-35.644531,-297.363281,2.922314
752,-397.460938,65.429688,120.605469,17.089844,-231.933594,2.926220
753,-189.941406,19.042969,57.128906,-4.394531,-40.039062,2.930126
754,273.437500,-5.371094,31.250000,-36.621094,-30.273438,2.934032
755,343.750000,15.136719,53.222656,-49.316406,-172.363281,2.937939
756,-60.546875,56.152344,95.703125,-26.367188,-267.089844,2.952985
757,-399.902344,56.640625,106.445312,9.765625,-219.238281,2.956891
758,-223.144531,20.996094,71.289062,15.136719,-57.128906,2.960798
759,266.113281,0.488281,50.292969,1.953125,-18.554688,2.964704
760,390.625000,12.207031,64.941406,-18.066406,-158.691406,2.968610
761,4.882812,52.246094,112.304688,-15.625000,-289.550781,2.972516
762,-357.421875,67.871094,137.695312,28.808594,-252.929688,2.976423
763,-251.464844,26.367188,80.566406,29.296875,-34.179688,2.980329
764,215.820312,-1.953125,34.667969,-0.976562,26.367188,2.984235
765,398.437500,9.765625,48.339844,-33.203125,-139.160156,2.988141
766,62.500000,44.433594,90.332031,-38.574219,-260.742188,2.992048
767,-346.191406,61.523438,115.722656,-3.417969,-207.031250,2.995954
768,-296.875000,33.691406,87.402344,16.601562,-59.082031,2.993756
769,173.339844,7.324219,57.617188,2.441406,-5.371094,2.997663
770,404.785156,8.300781,61.035156,-35.156250,-110.351562,3.001569
771,118.652344,35.644531,96.679688,-38.085938,-236.328125,3.005475
772,-295.898438,61.035156,124.511719,15.136719,-214.843750,3.009381
773,-306.640625,42.480469,94.238281,40.039062,-70.800781,3.013288
774,130.371094,15.625000,56.152344,24.902344,13.183594,3.017194
775,413.574219,13.671875,51.269531,-14.160156,-136.718750,3.021100
776,171.875000,35.156250,74.218750,-45.410156,-307.128906,3.025006
777,-260.742188,69.335938,120.605469,7.812500,-335.449219,3.028913
778,-351.562500,46.386719,94.238281,26.855469,-184.570312,3.032819
779,53.222656,1.953125,39.550781,5.859375,-41.503906,3.036725
780,408.203125,-1.464844,40.039062,-13.183594,-125.488281,3.032912
781,218.750000,21.484375,68.359375,-45.898438,-280.761719,3.036818
782,-256.835938,47.363281,103.515625,-19.042969,-277.343750,3.040725
783,-394.531250,34.667969,88.867188,14.160156,-110.839844,3.044631
784,0.976562,10.742188,47.851562,21.972656,-19.042969,3.048537
785,395.019531,11.718750,42.968750,4.882812,-107.421875,3.052443
786,259.765625,26.367188,61.523438,-41.015625,-232.421875,3.056350
787,-195.312500,57.617188,113.281250,-5.371094,-287.597656,3.060256
788,-388.183594,51.269531,109.863281,37.597656,-177.734375,3.064162
789,-77.636719,6.347656,45.410156,11.718750,12.207031,3.068068
790,338.378906,-2.929688,32.226562,-28.320312,-10.253906,3.071975
791,281.250000,20.019531,56.152344,-62.500000,-191.406250,3.075881
792,-166.015625,52.246094,98.144531,-28.320312,-288.574219,3.093215
793,-415.039062,47.363281,100.097656,7.324219,-181.640625,3.097122
794,-143.554688,13.183594,57.128906,-1.464844,0.488281,3.101028
795,302.734375,-1.464844,34.179688,-30.273438,-11.718750,3.104934
796,321.777344,14.648438,54.687500,-55.664062,-155.761719,3.108840
797,-93.750000,56.640625,114.257812,-20.507812,-281.738281,3.112747
798,-397.460938,56.152344,119.140625,9.277344,-210.937500,3.116653
799,-197.753906,7.324219,59.082031,-3.417969,-29.296875,3.120559
800,283.691406,-8.300781,38.085938,-17.089844,-37.597656,3.124465
801,374.023438,8.789062,54.687500,-47.363281,-175.292969,3.128372
802,-32.226562,46.386719,99.121094,-29.785156,-286.132812,3.132278
803,-372.070312,55.664062,106.445312,6.835938,-216.796875,3.136184
804,-215.820312,18.066406,59.570312,8.789062,-34.179688,3.133384
805,254.394531,-2.929688,36.621094,-8.789062,-4.394531,3.137290
806,380.371094,6.347656,48.339844,-40.039062,-135.253906,3.141196
807,15.625000,40.527344,94.726562,-19.042969,-278.320312,3.145103
808,-368.164062,51.757812,107.910156,20.019531,-191.406250,3.149009
809,-258.300781,29.296875,73.242188,45.410156,6.347656,3.152915
810,217.285156,0.976562,36.621094,21.972656,21.484375,3.156821
811,380.371094,-2.441406,24.902344,-41.992188,-87.890625,3.160728
812,55.664062,30.761719,62.500000,-41.503906,-234.375000,3.164634
813,-322.753906,63.964844,104.980469,31.738281,-267.578125,3.168540
814,-300.781250,37.109375,67.382812,36.132812,-87.890625,3.172446
815,122.558594,-8.300781,6.347656,-18.554688,32.226562,3.176353
816,377.929688,0.976562,14.648438,-45.898438,-119.628906,3.172979
817,115.722656,33.691406,54.687500,-49.316406,-300.292969,3.176885
818,-316.894531,57.128906,94.726562,-8.789062,-267.089844,3.180792
819,-351.562500,39.062500,72.753906,5.859375,-98.144531,3.184698
820,86.914062,12.207031,33.691406,-7.812500,18.554688,3.188604
821,397.949219,17.089844,41.503906,-28.808594,-53.710938,3.192510
822,163.085938,35.156250,62.011719,-61.523438,-206.542969,3.196417
823,-283.203125,59.570312,103.027344,-18.554688,-274.902344,3.200323
824,-366.699219,41.503906,90.332031,20.507812,-169.921875,3.204229
825,24.902344,-2.929688,29.785156,-11.718750,-26.855469,3.208135
826,376.953125,-5.859375,32.226562,-43.945312,-81.054688,3.212042
827,220.703125,27.343750,79.589844,-51.757812,-241.699219,3.215948
828,-237.304688,56.640625,116.699219,-13.183594,-305.664062,3.232862
829,-401.855469,32.714844,87.890625,7.812500,-155.273438,3.236768
830,-33.691406,0.976562,51.757812,4.882812,-2.441406,3.240674
831,353.027344,-3.906250,44.433594,-27.343750,-48.828125,3.244581
832,248.046875,12.695312,65.917969,-49.316406,-197.753906,3.248487
833,-188.476562,53.710938,118.164062,8.300781,-282.714844,3.252393
834,-391.601562,54.687500,107.910156,41.992188,-187.011719,3.256299
835,-88.378906,16.113281,54.199219,22.949219,-47.851562,3.260206
836,335.449219,1.464844,47.851562,-7.812500,-74.707031,3.264112
837,300.292969,15.625000,65.917969,-41.015625,-169.433594,3.268018
838,-142.578125,59.570312,109.375000,-13.671875,-208.007812,3.271924
839,-416.992188,55.175781,108.398438,6.835938,-120.117188,3.275831
840,-159.667969,15.625000,60.058594,0.976562,2.929688,3.273107
841,305.175781,4.394531,43.945312,-15.625000,-46.386719,3.277013
842,325.683594,20.507812,58.593750,-51.757812,-192.382812,3.280919
843,-105.468750,56.640625,103.515625,-35.644531,-272.460938,3.284825
844,-411.621094,53.710938,104.980469,-1.464844,-163.085938,3.288732
845,-177.734375,26.367188,59.082031,18.066406,-3.417969,3.292638
846,298.339844,7.812500,36.132812,-13.183594,-36.132812,3.296544
847,349.121094,5.371094,50.292969,-76.660156,-184.082031,3.300450
848,-46.386719,41.015625,101.562500,-45.898438,-279.296875,3.304357
849,-361.328125,57.617188,126.953125,25.878906,-243.652344,3.308263
850,-229.003906,14.648438,70.800781,14.648438,-73.730469,3.312169
851,225.097656,-10.253906,34.667969,-20.996094,12.207031,3.316075
852,378.417969,1.464844,48.828125,-45.410156,-118.164062,3.314089
853,31.250000,35.644531,86.914062,-30.273438,-282.714844,3.317995
854,-357.910156,53.710938,105.468750,13.671875,-228.515625,3.321902
855,-281.738281,25.878906,67.382812,23.925781,-24.414062,3.325808
856,186.035156,0.976562,36.132812,1.953125,32.714844,3.329714
857,391.601562,6.835938,47.851562,-28.808594,-122.070312,3.333620
858,84.960938,36.132812,81.542969,-30.273438,-268.554688,3.337527
859,-318.847656,60.546875,116.699219,17.578125,-235.351562,3.341433
860,-307.128906,35.644531,82.031250,27.343750,-122.558594,3.345339
861,125.000000,-8.789062,22.949219,-15.625000,-27.832031,3.349245
862,396.972656,-4.394531,30.761719,-38.085938,-75.195312,3.353152
863,143.554688,29.296875,67.871094,-39.062500,-231.445312,3.357058
864,-301.757812,48.828125,94.726562,-5.859375,-252.929688,3.373330
865,-346.679688,31.250000,71.777344,9.765625,-94.726562,3.377236
866,78.613281,4.882812,35.644531,-5.859375,-11.718750,3.381142
867,385.253906,-0.976562,34.667969,-40.527344,-101.562500,3.385048
868,178.710938,23.437500,65.917969,-59.082031,-246.582031,3.388955
869,-275.390625,58.593750,104.492188,-13.183594,-279.296875,3.392861
870,-385.253906,42.480469,83.984375,10.742188,-118.652344,3.396767
871,13.183594,-5.371094,22.460938,-11.718750,20.996094,3.400673
872,390.625000,-0.488281,22.949219,-14.648438,-61.523438,3.404580
873,226.562500,24.414062,48.339844,-41.503906,-247.558594,3.408486
874,-233.398438,51.757812,90.332031,-12.207031,-272.949219,3.412392
875,-396.972656,41.503906,85.449219,25.390625,-131.835938,3.416298
876,-47.851562,1.953125,30.761719,12.695312,-20.507812,3.412945
877,362.304688,-2.929688,20.019531,-7.812500,-51.269531,3.416852
878,274.414062,21.972656,42.968750,-36.621094,-181.152344,3.420758
879,-188.476562,50.781250,77.636719,-10.742188,-258.789062,3.424664
880,-406.738281,38.574219,74.218750,28.808594,-161.621094,3.428570
881,-81.054688,9.765625,42.968750,38.085938,-17.578125,3.432477
882,343.261719,-2.441406,21.484375,-4.394531,-75.683594,3.436383
883,304.199219,4.394531,28.808594,-54.687500,-230.957031,3.440289
884,-119.140625,41.503906,82.519531,-11.718750,-299.316406,3.444195
885,-378.906250,52.734375,100.585938,38.574219,-219.238281,3.448102
886,-154.296875,8.300781,33.203125,13.183594,-39.550781,3.452008
887,312.011719,-4.394531,12.695312,-4.882812,-67.382812,3.455914
888,341.308594,10.253906,35.156250,-41.992188,-215.332031,3.455718
889,-94.238281,41.015625,73.730469,-41.992188,-299.804688,3.459624
890,-407.714844,50.292969,80.566406,3.417969,-230.468750,3.463530
891,-221.679688,13.183594,30.273438,3.906250,-65.917969,3.467436
892,257.324219,-5.859375,13.671875,-22.460938,-63.964844,3.471343
893,361.816406,14.160156,28.808594,-52.246094,-201.171875,3.475249
894,-31.250000,46.386719,59.570312,-43.457031,-304.687500,3.479155
895,-385.253906,57.128906,77.636719,2.929688,-233.398438,3.483061
896,-270.996094,25.390625,35.644531,0.976562,-67.871094,3.486968
897,191.894531,0.488281,0.000000,-34.667969,-26.367188,3.490874
898,365.234375,8.789062,8.789062,-62.988281,-161.132812,3.494780
899,32.714844,37.597656,42.480469,-52.246094,-274.414062,3.498686
900,-357.910156,54.199219,60.546875,-8.300781,-198.242188,3.513098
901,-295.410156,30.273438,31.738281,6.347656,-75.683594,3.517004
902,170.410156,4.394531,3.417969,-7.812500,-10.253906,3.520910
903,390.136719,3.906250,6.835938,-34.179688,-90.332031,3.524817
904,82.519531,25.390625,29.296875,-48.339844,-229.980469,3.528723
905,-321.289062,57.128906,70.800781,11.718750,-198.242188,3.532629
906,-328.125000,33.691406,48.828125,30.761719,-75.195312,3.536535
907,94.726562,-9.765625,-10.253906,-20.019531,4.882812,3.540442
908,384.765625,-1.464844,-5.859375,-42.968750,-63.964844,3.544348
909,144.531250,28.808594,27.832031,-40.527344,-184.570312,3.548254
910,-292.480469,52.246094,59.570312,2.441406,-197.753906,3.552160
911,-344.238281,31.250000,38.085938,20.507812,-76.171875,3.556067
912,73.242188,0.976562,-3.417969,2.441406,31.738281,3.552887
913,387.695312,2.441406,-6.347656,-25.390625,-55.664062,3.556793
914,198.242188,24.414062,25.878906,-42.480469,-250.488281,3.560699
915,-261.718750,45.898438,57.128906,-12.207031,-295.410156,3.564606
916,-382.324219,36.621094,45.410156,18.066406,-138.671875,3.568512
917,10.742188,15.625000,14.648438,13.183594,-32.714844,3.572418
918,368.652344,3.417969,4.394531,-26.367188,-72.753906,3.576324
919,219.726562,10.742188,13.183594,-60.546875,-198.730469,3.580231
920,-218.261719,50.781250,56.640625,-6.835938,-282.714844,3.584137
921,-376.464844,57.617188,65.917969,41.503906,-178.710938,3.588043
922,-65.917969,9.277344,4.394531,0.976562,-16.601562,3.591949
923,331.054688,-5.859375,-20.996094,-44.433594,-43.945312,3.595856
924,270.996094,19.042969,-1.464844,-63.964844,-179.199219,3.612942
925,-178.710938,54.687500,46.386719,-19.531250,-249.023438,3.616849
926,-416.015625,54.199219,48.828125,23.437500,-166.992188,3.620755
927,-128.906250,17.089844,1.464844,10.742188,-8.789062,3.624661
928,319.335938,3.906250,-16.601562,-14.160156,-31.738281,3.628567
929,328.613281,26.367188,4.882812,-32.714844,-229.003906,3.632474
930,-106.933594,58.593750,48.828125,-10.253906,-326.171875,3.636380
931,-400.878906,58.105469,51.269531,23.437500,-214.843750,3.640286
932,-177.734375,19.042969,-4.882812,6.347656,-56.152344,3.644192
933,288.085938,0.488281,-24.902344,-20.996094,-48.828125,3.648099
934,342.285156,8.300781,-11.718750,-43.457031,-186.523438,3.652005
935,-58.593750,43.945312,30.273438,-20.507812,-281.250000,3.655911
936,-379.394531,53.222656,49.316406,20.019531,-192.382812,3.652897
937,-218.261719,15.136719,6.835938,11.230469,23.925781,3.656803
938,256.347656,-3.906250,-20.019531,-6.835938,30.761719,3.660710
939,379.882812,5.371094,-11.230469,-35.644531,-168.945312,3.664616
940,1.464844,41.503906,26.855469,-35.156250,-307.128906,3.668522
941,-365.722656,59.082031,43.457031,7.324219,-252.441406,3.672428
942,-248.046875,31.250000,9.277344,19.042969,-83.496094,3.676335
943,219.238281,5.371094,-27.343750,-16.601562,-33.691406,3.680241
944,390.136719,11.230469,-26.855469,-60.546875,-158.691406,3.684147
945,49.804688,36.621094,5.371094,-61.523438,-253.906250,3.688053
946,-330.078125,63.964844,38.085938,6.835938,-228.515625,3.691960
947,-274.902344,42.480469,6.347656,18.066406,-109.863281,3.695866
948,152.832031,4.882812,-42.480469,-31.738281,-27.343750,3.695679
949,379.882812,5.859375,-34.667969,-54.199219,-120.605469,3.699585
950,101.562500,29.785156,1.953125,-49.316406,-257.324219,3.703492
951,-312.011719,53.710938,28.808594,8.789062,-248.535156,3.707398
952,-330.078125,37.109375,3.906250,26.855469,-97.656250,3.711304
953,101.562500,10.742188,-25.878906,-3.906250,16.601562,3.715210
954,390.625000,9.277344,-24.902344,-34.179688,-71.289062,3.719117
955,159.179688,31.738281,-12.695312,-44.433594,-247.070312,3.723023
956,-263.183594,67.382812,24.902344,10.742188,-264.648438,3.726929
957,-335.449219,52.734375,13.183594,31.738281,-123.535156,3.730835
958,45.410156,6.347656,-41.992188,-17.089844,-19.531250,3.734742
959,376.464844,-1.953125,-45.898438,-44.433594,-111.816406,3.738648
960,209.472656,23.437500,-12.695312,-47.363281,-291.992188,3.753015
961,-253.906250,50.292969,19.531250,-8.789062,-317.382812,3.756922
962,-388.671875,41.992188,-2.929688,20.996094,-137.695312,3.760828
963,0.488281,16.601562,-48.339844,14.160156,6.835938,3.764734
964,364.257812,7.812500,-56.152344,-25.878906,-113.281250,3.768640
965,233.398438,31.738281,-24.414062,-59.082031,-279.785156,3.772547
966,-213.867188,59.082031,11.230469,-24.414062,-266.601562,3.776453
967,-385.742188,54.199219,9.277344,19.042969,-167.480469,3.780359
968,-68.847656,15.625000,-52.734375,-12.695312,-26.367188,3.784265
969,323.730469,0.976562,-74.707031,-58.593750,-5.859375,3.788172
970,260.742188,17.578125,-41.503906,-83.984375,-168.945312,3.792078
971,-177.734375,43.945312,-0.488281,-48.339844,-220.703125,3.795984
972,-401.855469,47.363281,1.953125,5.859375,-106.445312,3.792928
973,-125.000000,21.972656,-37.109375,3.417969,-4.394531,3.796834
974,308.593750,3.417969,-51.757812,-32.226562,-16.601562,3.800740
975,325.683594,16.113281,-25.878906,-53.222656,-175.292969,3.804646
976,-87.890625,50.292969,23.437500,-16.601562,-288.085938,3.808553
977,-382.324219,55.664062,27.343750,22.949219,-172.363281,3.812459
978,-164.062500,27.832031,-11.230469,18.066406,-20.019531,3.816365
979,290.039062,2.929688,-35.644531,-15.136719,-41.992188,3.820271
980,360.351562,3.906250,-28.320312,-45.898438,-164.062500,3.824178
981,-21.972656,39.550781,11.718750,-20.996094,-266.113281,3.828084
982,-336.914062,64.941406,40.527344,39.062500,-227.539062,3.831990
983,-197.265625,28.808594,-5.371094,26.855469,-56.152344,3.835896
984,245.605469,-10.742188,-54.687500,-24.414062,36.621094,3.833322
985,388.183594,1.953125,-34.179688,-44.433594,-70.800781,3.837228
986,27.343750,38.085938,9.765625,-29.785156,-209.960938,3.841134
987,-353.515625,50.292969,27.343750,6.835938,-190.429688,3.845040
988,-259.277344,21.972656,0.000000,21.972656,-12.695312,3.848947
989,214.843750,1.464844,-20.996094,18.554688,30.273438,3.852853
990,401.855469,3.417969,-18.554688,-21.484375,-113.769531,3.856759
991,63.476562,26.367188,5.371094,-43.457031,-255.859375,3.860665
992,-319.824219,55.664062,42.968750,24.902344,-254.882812,3.864572
993,-278.808594,43.457031,18.554688,43.457031,-124.023438,3.868478
994,142.578125,8.300781,-34.667969,-15.625000,-44.921875,3.872384
995,387.695312,8.789062,-29.296875,-53.222656,-148.925781,3.876290
996,114.257812,33.691406,5.371094,-61.523438,-294.921875,3.893216
997,-310.058594,59.082031,37.109375,-10.742188,-298.339844,3.897122
998,-341.308594,44.433594,13.183594,9.765625,-129.394531,3.901028
999,80.566406,10.253906,-24.902344,-17.089844,-5.371094,3.904934
1000,384.277344,6.835938,-21.972656,-39.062500,-96.679688,3.908841
1001,170.898438,27.343750,8.789062,-44.921875,-229.492188,3.912747
1002,-271.484375,55.175781,48.828125,-1.464844,-205.078125,3.916653
1003,-362.304688,45.410156,29.785156,23.925781,-61.035156,3.920559
1004,24.902344,3.417969,-25.878906,-1.464844,42.968750,3.924466
1005,384.765625,-0.488281,-26.855469,-24.902344,-45.898438,3.928372
1006,236.816406,23.925781,1.953125,-33.691406,-231.445312,3.932278
1007,-223.144531,50.781250,39.550781,8.789062,-245.117188,3.936184
1008,-364.257812,43.945312,41.015625,55.175781,-129.882812,3.935817
1009,4.882812,11.230469,-4.882812,45.410156,-18.066406,3.939723
1010,379.394531,3.417969,-24.414062,-0.488281,-34.667969,3.943630
1011,277.832031,25.878906,6.347656,-25.878906,-192.871094,3.947536
1012,-169.921875,56.640625,54.687500,11.230469,-255.859375,3.951442
1013,-377.441406,47.363281,54.199219,49.316406,-158.203125,3.955348
1014,-70.800781,6.835938,0.976562,35.644531,-59.082031,3.959255
1015,340.820312,-2.441406,-20.996094,-9.765625,-100.097656,3.963161
1016,294.433594,17.578125,-3.417969,-50.292969,-239.257812,3.967067
1017,-140.136719,53.710938,38.574219,-14.160156,-285.644531,3.970973
1018,-387.207031,62.500000,53.710938,36.621094,-178.222656,3.974880
1019,-148.925781,17.089844,-0.488281,7.812500,-35.156250,3.978786
1020,291.015625,-8.789062,-25.390625,-32.226562,-68.359375,3.973205
1021,321.777344,9.277344,-2.929688,-52.246094,-189.941406,3.977111
1022,-79.589844,51.269531,37.597656,-17.578125,-269.042969,3.981018
1023,-370.117188,59.082031,46.875000,32.714844,-205.566406,3.984924
1024,-173.828125,21.972656,1.464844,24.902344,-36.621094,3.988830
1025,285.156250,5.859375,-11.718750,-2.929688,-31.250000,3.992736
1026,356.445312,13.183594,0.976562,-43.945312,-151.367188,3.996643
1027,-34.179688,42.968750,24.902344,-35.156250,-273.437500,4.000549
1028,-354.492188,69.824219,57.128906,36.132812,-257.812500,4.004455
1029,-225.097656,33.203125,21.484375,42.480469,-98.144531,4.008361
1030,221.679688,-8.789062,-26.367188,-9.277344,-60.546875,4.012268
1031,375.976562,5.859375,-18.554688,-39.550781,-151.367188,4.016174
1032,26.367188,46.386719,22.460938,-26.367188,-269.531250,4.033416
1033,-354.492188,58.105469,49.316406,17.578125,-236.328125,4.037323
1034,-265.136719,28.320312,13.183594,44.433594,-67.382812,4.041229
1035,210.449219,6.347656,-24.414062,26.855469,-6.835938,4.045135
1036,415.527344,12.695312,-11.718750,-12.695312,-118.164062,4.049041
1037,94.238281,41.503906,26.367188,-24.902344,-266.113281,4.052948
1038,-312.988281,65.429688,61.523438,20.507812,-260.742188,4.056854
1039,-288.085938,36.621094,32.714844,40.039062,-117.675781,4.060760
1040,145.507812,-7.812500,-28.808594,-6.347656,-29.296875,4.064666
1041,403.320312,0.000000,-21.972656,-42.968750,-98.144531,4.068573
1042,133.789062,26.367188,20.019531,-53.710938,-214.843750,4.072479
1043,-295.898438,45.410156,49.804688,-11.718750,-218.261719,4.076385
1044,-320.312500,34.667969,30.273438,22.949219,-83.984375,4.073368
1045,95.214844,4.394531,-14.648438,-1.953125,23.925781,4.077275
1046,388.671875,-3.417969,-17.089844,-47.363281,-56.640625,4.081181
1047,178.222656,22.949219,20.019531,-59.570312,-220.214844,4.085087
1048,-271.972656,48.339844,51.757812,-20.996094,-240.722656,4.088993
1049,-364.257812,40.527344,39.062500,15.136719,-120.605469,4.092900
1050,40.039062,14.160156,-4.394531,7.324219,-21.484375,4.096806
1051,381.835938,1.953125,-17.089844,-34.667969,-95.703125,4.100712
1052,211.425781,14.160156,0.976562,-68.359375,-253.906250,4.104618
1053,-230.957031,51.269531,45.898438,-20.019531,-283.203125,4.108525
1054,-369.628906,57.617188,59.570312,38.574219,-169.921875,4.112431
1055,-43.457031,7.812500,-8.789062,5.371094,-23.925781,4.116337
1056,339.355469,-8.300781,-35.156250,-35.156250,-43.457031,4.112921
1057,248.535156,13.183594,-2.441406,-61.523438,-165.039062,4.116828
1058,-203.125000,40.039062,38.085938,-30.273438,-199.218750,4.120734
1059,-399.902344,43.945312,41.015625,28.808594,-117.675781,4.124640
1060,-86.425781,15.625000,-2.441406,25.878906,-22.460938,4.128546
1061,342.773438,3.417969,-19.531250,-5.859375,-34.179688,4.132453
1062,301.269531,13.183594,-6.347656,-44.433594,-145.996094,4.136359
1063,-135.742188,41.503906,30.761719,-22.460938,-249.023438,4.140265
1064,-372.070312,55.664062,46.875000,41.015625,-178.222656,4.144171
1065,-138.183594,19.531250,-9.765625,20.019531,-61.523438,4.148078
1066,289.062500,-4.882812,-42.480469,-37.109375,-74.218750,4.151984
1067,320.312500,7.324219,-15.625000,-67.382812,-182.128906,4.155890
1068,-82.519531,42.968750,35.156250,-34.667969,-280.761719,4.173392
1069,-398.437500,50.292969,46.386719,9.765625,-182.128906,4.177298
1070,-223.632812,17.089844,1.464844,1.464844,0.488281,4.181204
1071,243.164062,0.000000,-29.296875,-30.273438,12.695312,4.185111
1072,351.074219,10.253906,-13.671875,-53.710938,-120.117188,4.189017
1073,-25.878906,44.921875,34.179688,-36.132812,-293.945312,4.192923
1074,-377.929688,62.011719,58.105469,11.230469,-268.066406,4.196829
1075,-257.812500,27.343750,18.066406,8.300781,-86.425781,4.200736
1076,205.078125,-6.347656,-28.320312,-32.226562,-21.972656,4.204642
1077,382.324219,4.394531,-17.578125,-54.687500,-147.460938,4.208548
1078,40.527344,36.621094,17.089844,-48.339844,-306.152344,4.212454
1079,-354.492188,54.199219,34.667969,-8.789062,-249.511719,4.216361
1080,-281.738281,31.738281,10.742188,8.300781,-52.734375,4.213523
1081,180.664062,2.929688,-19.531250,-12.695312,3.417969,4.217429
1082,396.972656,1.464844,-15.625000,-39.062500,-137.207031,4.221336
1083,104.980469,29.785156,22.949219,-32.226562,-298.828125,4.225242
1084,-306.152344,55.175781,57.617188,19.531250,-271.972656,4.229148
1085,-296.875000,32.714844,30.761719,42.968750,-106.933594,4.233054
1086,141.113281,-5.371094,-12.695312,18.066406,-28.808594,4.236961
1087,397.460938,-7.324219,-15.136719,-20.507812,-116.210938,4.240867
1088,136.718750,19.531250,12.695312,-46.386719,-233.398438,4.244773
1089,-287.109375,55.664062,54.687500,2.441406,-260.742188,4.248679
1090,-339.355469,40.527344,36.621094,37.597656,-125.000000,4.252586
1091,56.152344,-6.347656,-25.878906,-2.441406,11.230469,4.256492
1092,379.882812,-4.882812,-26.367188,-43.457031,-46.875000,4.253393
1093,189.941406,25.390625,9.277344,-65.429688,-211.914062,4.257299
1094,-267.089844,53.222656,39.550781,-32.714844,-254.394531,4.261206
1095,-375.000000,39.062500,25.878906,2.929688,-150.878906,4.265112
1096,17.089844,11.230469,-6.835938,-3.906250,-55.664062,4.269018
1097,372.070312,7.812500,-7.324219,-37.597656,-93.750000,4.272924
1098,230.468750,25.390625,15.136719,-68.847656,-238.769531,4.276831
1099,-213.378906,57.128906,54.199219,-23.925781,-270.996094,4.280737
1100,-364.746094,59.570312,64.453125,37.597656,-185.058594,4.284643
1101,-50.292969,10.742188,0.976562,0.976562,-79.101562,4.288549
1102,339.843750,-6.347656,-30.273438,-49.804688,-88.867188,4.292456
1103,289.062500,26.855469,12.207031,-56.640625,-293.945312,4.296362
1104,-163.574219,53.222656,53.710938,-21.484375,-393.066406,4.313415
1105,-391.601562,49.316406,54.687500,21.484375,-261.230469,4.317321
1106,-108.398438,16.113281,12.207031,18.066406,-82.031250,4.321227
1107,319.824219,-2.929688,-4.882812,-5.371094,-88.378906,4.325134
1108,316.406250,16.113281,17.089844,-24.414062,-250.976562,4.329040
1109,-112.792969,53.222656,57.128906,3.906250,-356.445312,4.332946
1110,-390.136719,57.617188,68.847656,42.968750,-256.347656,4.336852
1111,-175.292969,16.601562,16.113281,29.296875,-88.378906,4.340759
1112,272.949219,-6.835938,-23.925781,-13.183594,-54.687500,4.344665
1113,347.656250,18.554688,3.417969,-34.667969,-187.011719,4.348571
1114,-62.988281,49.804688,41.992188,-27.832031,-292.968750,4.352477
1115,-390.625000,50.781250,48.339844,0.488281,-232.910156,4.356384
1116,-210.449219,19.531250,10.253906,16.601562,-72.753906,4.353208
1117,254.882812,-5.371094,-22.949219,-11.718750,2.441406,4.357114
1118,365.234375,8.789062,-11.718750,-61.035156,-98.144531,4.361020
1119,-9.277344,45.898438,21.484375,-62.500000,-239.257812,4.364927
1120,-371.093750,57.128906,33.691406,-19.531250,-186.035156,4.368833
1121,-250.000000,31.738281,6.835938,9.765625,-11.718750,4.372739
1122,209.472656,4.882812,-25.390625,-17.578125,44.921875,4.376645
1123,382.812500,6.835938,-21.972656,-60.546875,-90.332031,4.380552
1124,43.945312,26.855469,5.371094,-65.917969,-223.632812,4.384458
1125,-342.773438,54.687500,43.457031,-1.464844,-180.664062,4.388364
1126,-287.597656,42.480469,21.484375,20.996094,-63.964844,4.392270
1127,141.113281,-2.929688,-34.179688,-35.156250,15.136719,4.396177
1128,384.765625,1.953125,-17.089844,-56.640625,-74.707031,4.394567
1129,98.632812,33.691406,22.949219,-52.246094,-242.675781,4.398474
1130,-332.519531,50.781250,48.339844,-7.812500,-241.699219,4.402380
1131,-336.914062,31.250000,30.761719,24.902344,-96.191406,4.406286
1132,97.656250,-2.441406,-11.718750,14.648438,40.527344,4.410192
1133,401.367188,7.812500,-0.976562,-2.929688,-57.617188,4.414099
1134,151.367188,29.296875,18.066406,-34.179688,-254.394531,4.418005
1135,-298.828125,48.828125,46.875000,7.812500,-247.070312,4.421911
1136,-354.980469,39.550781,41.503906,50.781250,-83.496094,4.425817
1137,38.574219,5.859375,-12.207031,11.230469,36.621094,4.429724
1138,370.117188,2.441406,-17.089844,-25.390625,-63.964844,4.433630
1139,196.289062,22.949219,4.394531,-50.781250,-230.468750,4.437536
1140,-244.140625,58.105469,41.992188,-7.812500,-249.511719,4.453337
1141,-375.976562,47.363281,36.132812,22.949219,-104.980469,4.457243
1142,-11.230469,8.789062,-8.300781,3.417969,0.000000,4.461149
1143,370.605469,4.394531,-18.554688,-32.714844,-40.527344,4.465056
1144,250.488281,28.320312,7.324219,-60.058594,-185.058594,4.468962
1145,-205.566406,57.128906,43.457031,-29.785156,-243.164062,4.472868
1146,-379.394531,62.500000,53.222656,18.066406,-137.695312,4.476774
1147,-66.894531,15.625000,0.000000,7.324219,1.464844,4.480681
1148,337.402344,-12.207031,-25.390625,-26.855469,-0.976562,4.484587
1149,287.109375,15.136719,4.882812,-43.457031,-173.339844,4.488493
1150,-159.179688,50.781250,36.621094,-18.066406,-246.093750,4.492399
1151,-391.601562,56.152344,41.015625,30.273438,-133.789062,4.496306
1152,-112.304688,18.066406,-1.464844,32.226562,7.812500,4.493210
1153,324.707031,-2.929688,-22.460938,0.000000,-3.417969,4.497117
1154,328.613281,13.671875,-0.488281,-27.343750,-175.292969,4.501023
1155,-101.562500,41.992188,32.714844,-9.277344,-255.371094,4.504929
1156,-379.882812,49.804688,41.015625,35.644531,-189.453125,4.508835
1157,-145.019531,31.250000,5.371094,49.804688,-71.777344,4.512742
1158,304.199219,11.230469,-22.460938,11.718750,-58.105469,4.516648
1159,365.722656,16.113281,-12.207031,-30.761719,-195.800781,4.520554
1160,-39.550781,41.015625,13.183594,-25.390625,-328.613281,4.524460
1161,-349.121094,62.500000,40.039062,24.414062,-267.578125,4.528367
1162,-191.894531,32.714844,11.230469,25.390625,-73.730469,4.532273
1163,242.187500,-9.277344,-37.109375,-31.250000,-34.179688,4.536179
1164,391.601562,4.394531,-18.554688,-47.363281,-168.457031,4.532928
1165,34.179688,41.015625,22.460938,-30.761719,-289.062500,4.536834
1166,-349.609375,53.710938,42.968750,7.324219,-214.843750,4.540741
1167,-254.394531,24.902344,14.160156,27.832031,-26.855469,4.544647
1168,209.472656,-1.464844,-18.066406,4.394531,23.925781,4.548553
1169,406.738281,8.789062,3.906250,-14.648438,-125.000000,4.552459
1170,67.382812,30.761719,32.714844,-20.019531,-287.109375,4.556366
1171,-333.007812,51.269531,58.593750,24.902344,-235.839844,4.560272
1172,-290.039062,34.179688,36.621094,50.292969,-91.308594,4.564178
1173,135.253906,-5.371094,-20.507812,2.441406,-46.875000,4.568084
1174,389.160156,-2.441406,-6.347656,-25.390625,-135.742188,4.571991
1175,116.210938,20.507812,24.902344,-30.273438,-275.390625,4.575897
1176,-311.523438,47.363281,52.734375,12.695312,-289.550781,4.593387
1177,-334.960938,31.250000,30.761719,22.949219,-112.304688,4.597294
1178,95.214844,0.000000,-18.066406,-8.789062,17.578125,4.601200
1179,409.179688,2.929688,-13.671875,-29.296875,-113.281250,4.605106
1180,198.730469,27.343750,12.695312,-41.503906,-292.480469,4.609012
1181,-233.398438,64.941406,59.570312,12.207031,-277.832031,4.612919
1182,-323.242188,49.804688,49.316406,46.875000,-160.644531,4.616825
1183,45.410156,-0.488281,-17.089844,2.441406,-56.152344,4.620731
1184,390.136719,-0.976562,-25.878906,-36.621094,-96.679688,4.624637
1185,233.398438,25.878906,3.417969,-57.617188,-243.164062,4.628544
1186,-225.585938,55.175781,42.480469,-21.972656,-291.503906,4.632450
1187,-376.464844,44.433594,40.039062,13.183594,-167.968750,4.636356
1188,-22.460938,7.812500,-4.882812,1.464844,5.859375,4.635738
1189,368.164062,3.906250,-20.507812,-26.855469,-74.218750,4.639644
1190,276.367188,23.925781,-3.417969,-47.851562,-265.625000,4.643550
1191,-172.363281,50.292969,37.597656,-6.347656,-279.296875,4.647457
1192,-380.859375,47.363281,48.828125,38.085938,-148.437500,4.651363
1193,-83.496094,9.277344,5.859375,17.089844,-36.132812,4.655269
1194,329.101562,-11.230469,-18.066406,-16.113281,-76.171875,4.659175
1195,298.339844,2.441406,-4.882812,-35.156250,-235.351562,4.663082
1196,-135.742188,37.597656,27.832031,-13.183594,-311.035156,4.666988
1197,-371.582031,55.664062,51.269531,43.457031,-199.707031,4.670894
1198,-121.582031,19.042969,10.742188,26.855469,-61.035156,4.674800
1199,311.523438,-10.253906,-25.390625,-25.390625,-43.457031,4.678707
1200,349.609375,8.300781,0.000000,-43.457031,-164.550781,4.673435
1201,-76.660156,39.062500,34.179688,-32.226562,-258.300781,4.677342
1202,-380.859375,44.433594,43.945312,2.929688,-147.949219,4.681248
1203,-167.480469,19.531250,17.578125,12.207031,12.695312,4.685154
1204,301.269531,-0.976562,-4.394531,-10.742188,-2.441406,4.689060
1205,391.113281,11.718750,9.277344,-33.203125,-143.554688,4.692967
1206,-13.183594,39.062500,42.480469,-35.156250,-271.484375,4.696873
1207,-350.585938,53.710938,67.382812,18.554688,-213.867188,4.700779
1208,-214.355469,26.855469,36.621094,25.390625,-61.035156,4.704685
1209,214.843750,-14.648438,-16.113281,-41.503906,-20.996094,4.708592
1210,369.140625,-3.906250,-1.464844,-73.730469,-143.554688,4.712498
1211,16.113281,30.273438,40.039062,-65.429688,-282.714844,4.716404
1212,-371.093750,45.410156,60.058594,-20.996094,-217.285156,4.732995
1213,-278.808594,23.437500,32.714844,3.417969,-28.808594,4.736901
1214,196.289062,-3.906250,0.000000,-7.812500,32.226562,4.740808
1215,404.785156,2.929688,9.765625,-29.296875,-119.140625,4.744714
1216,80.078125,38.085938,43.457031,-37.597656,-276.855469,4.748620
1217,-318.847656,64.453125,77.636719,14.648438,-233.398438,4.752526
1218,-291.015625,36.132812,51.757812,45.410156,-51.269531,4.756433
1219,145.019531,-4.394531,0.488281,13.671875,29.296875,4.760339
1220,402.832031,0.976562,1.953125,-22.460938,-64.941406,4.764245
1221,126.953125,30.273438,30.761719,-45.898438,-225.585938,4.768151
1222,-295.410156,62.988281,70.800781,6.835938,-269.531250,4.772058
1223,-323.730469,44.921875,53.710938,39.062500,-155.761719,4.775964
1224,83.984375,3.417969,2.929688,2.441406,-66.406250,4.773175
1225,377.441406,-0.976562,2.929688,-34.179688,-112.792969,4.777081
1226,165.527344,14.648438,29.785156,-53.222656,-255.371094,4.780987
1227,-274.902344,43.945312,72.265625,-4.394531,-273.437500,4.784893
1228,-373.046875,35.644531,66.406250,34.667969,-106.933594,4.788800
1229,19.531250,5.859375,24.414062,18.066406,-28.808594,4.792706
1230,379.394531,3.417969,12.695312,-10.742188,-108.886719,4.796612
1231,234.375000,21.972656,24.902344,-33.691406,-231.933594,4.800518
1232,-224.609375,52.734375,62.011719,-2.929688,-280.273438,4.804425
1233,-374.511719,53.710938,79.589844,45.410156,-187.988281,4.808331
1234,-36.132812,5.859375,28.320312,22.949219,-37.597656,4.812237
1235,349.609375,-10.253906,-0.976562,-24.414062,-40.039062,4.816143
1236,274.902344,18.554688,20.507812,-41.015625,-223.144531,4.814626
1237,-166.015625,55.175781,55.175781,-1.953125,-309.570312,4.818532
1238,-389.160156,47.363281,53.222656,26.367188,-151.367188,4.822438
1239,-108.398438,5.859375,7.324219,7.324219,31.250000,4.826344
1240,318.847656,-6.835938,-7.324219,-16.601562,-29.785156,4.830251
1241,313.964844,14.160156,20.507812,-25.390625,-219.238281,4.834157
1242,-120.605469,40.527344,50.292969,-3.906250,-315.917969,4.838063
1243,-384.765625,52.734375,60.546875,29.785156,-219.238281,4.841969
1244,-153.808594,22.460938,16.113281,12.207031,-45.410156,4.845876
1245,278.808594,-6.835938,-22.460938,-29.296875,-55.664062,4.849782
1246,327.636719,8.300781,1.464844,-44.433594,-182.128906,4.853688
1247,-90.332031,36.132812,37.109375,-28.320312,-263.671875,4.857594
1248,-401.367188,42.968750,46.386719,12.695312,-201.660156,4.875710
1249,-208.984375,18.066406,12.695312,21.972656,-33.203125,4.879617
1250,257.324219,-1.464844,-19.042969,-5.859375,12.207031,4.883523
1251,359.375000,7.324219,-10.742188,-41.503906,-151.855469,4.887429
1252,-26.855469,39.062500,23.925781,-38.085938,-272.949219,4.891335
1253,-365.234375,62.500000,56.152344,21.484375,-211.914062,4.895242
1254,-237.792969,34.667969,26.855469,35.644531,-87.402344,4.899148
1255,205.566406,-9.765625,-41.015625,-16.113281,11.230469,4.903054
1256,387.207031,5.371094,-29.296875,-30.761719,-79.589844,4.906960
1257,41.992188,41.015625,11.718750,-35.156250,-229.003906,4.910867
1258,-362.304688,52.734375,29.296875,-12.695312,-156.738281,4.914773
1259,-282.714844,31.250000,8.300781,11.718750,-35.156250,4.918679
1260,171.875000,2.441406,-28.808594,-12.695312,-32.226562,4.912932
1261,385.742188,4.394531,-27.343750,-44.921875,-161.132812,4.916838
1262,97.656250,31.250000,8.300781,-47.363281,-306.152344,4.920745
1263,-323.730469,50.292969,37.109375,-14.648438,-269.042969,4.924651
1264,-327.636719,29.296875,20.507812,13.183594,-97.656250,4.928557
1265,107.421875,-0.976562,-13.183594,-3.906250,-11.230469,4.932463
1266,374.511719,-3.417969,-15.136719,-45.410156,-97.656250,4.936370
1267,123.535156,16.601562,8.789062,-60.058594,-245.605469,4.940276
1268,-315.429688,43.945312,39.550781,-16.113281,-287.109375,4.944182
1269,-354.492188,44.921875,41.992188,22.460938,-147.460938,4.948088
1270,47.363281,-0.976562,-13.671875,-8.300781,-31.250000,4.951995
1271,365.722656,-17.578125,-33.691406,-41.503906,-94.726562,4.955901
1272,180.175781,14.160156,1.953125,-59.082031,-205.078125,4.953475
1273,-281.250000,43.457031,41.015625,-26.855469,-255.371094,4.957381
1274,-381.835938,36.132812,31.738281,22.949219,-161.621094,4.961287
1275,11.718750,4.394531,-19.531250,12.695312,-22.949219,4.965194
1276,373.535156,3.906250,-29.296875,-17.578125,-54.199219,4.969100
1277,245.117188,26.367188,0.976562,-35.156250,-189.941406,4.973006
1278,-219.238281,43.945312,31.738281,-14.160156,-249.023438,4.976912
1279,-380.859375,48.339844,44.921875,47.363281,-200.195312,4.980819
1280,-43.457031,10.742188,-3.417969,38.085938,-57.128906,4.984725
1281,344.726562,-15.136719,-42.480469,-20.019531,-19.531250,4.988631
1282,292.968750,12.695312,-17.089844,-35.156250,-190.429688,4.992537
1283,-155.273438,45.410156,20.507812,-11.230469,-272.949219,4.996444
1284,-392.089844,47.851562,26.855469,24.902344,-163.574219,5.014159
1285,-113.281250,18.066406,-9.765625,17.089844,-32.226562,5.018065
1286,313.476562,-1.464844,-31.250000,-20.996094,14.160156,5.021971
1287,308.593750,15.136719,-10.742188,-47.363281,-114.746094,5.025878
1288,-126.953125,46.386719,24.902344,-28.320312,-234.375000,5.029784
1289,-398.437500,53.710938,33.691406,17.089844,-124.023438,5.033690
1290,-161.132812,20.996094,-0.976562,19.531250,41.015625,5.037596
1291,285.644531,-3.906250,-33.691406,-24.414062,10.253906,5.041503
1292,349.609375,14.160156,-22.949219,-57.128906,-145.996094,5.045409
1293,-52.734375,46.386719,8.789062,-44.921875,-233.886719,5.049315
1294,-363.769531,65.917969,41.503906,8.789062,-173.828125,5.053221
1295,-202.636719,35.644531,10.253906,10.253906,-20.019531,5.057128
1296,228.515625,-7.324219,-50.781250,-48.339844,0.488281,5.055634
1297,358.398438,2.441406,-36.132812,-62.011719,-157.714844,5.059541
1298,-13.183594,31.738281,4.882812,-46.875000,-255.859375,5.063447
1299,-376.953125,48.828125,31.738281,0.976562,-172.851562,5.067353
1300,-249.023438,33.203125,8.300781,33.203125,-55.664062,5.071259
1301,211.914062,6.835938,-29.296875,10.742188,-16.601562,5.075166
1302,397.949219,11.230469,-19.042969,-18.066406,-125.000000,5.079072
1303,69.335938,36.621094,5.859375,-26.855469,-280.761719,5.082978
1304,-314.453125,62.500000,35.644531,21.972656,-272.460938,5.086884
1305,-252.929688,43.457031,21.484375,46.875000,-108.886719,5.090791
1306,174.804688,-3.906250,-39.550781,-11.230469,-4.882812,5.094697
1307,415.527344,0.976562,-34.667969,-41.992188,-119.628906,5.098603
1308,128.906250,30.761719,3.417969,-45.410156,-269.531250,5.115019
1309,-287.109375,56.152344,38.085938,-0.488281,-250.000000,5.118926
1310,-293.945312,39.062500,22.949219,26.855469,-105.468750,5.122832
1311,116.210938,0.488281,-27.832031,-6.835938,-0.488281,5.126738
1312,403.808594,5.859375,-25.390625,-38.574219,-80.566406,5.130644
1313,181.152344,36.621094,11.718750,-50.292969,-256.347656,5.134551
1314,-261.718750,63.476562,45.410156,-1.464844,-307.617188,5.138457
1315,-331.542969,55.175781,39.550781,44.433594,-210.937500,5.142363
1316,44.433594,6.347656,-15.136719,-6.835938,-64.453125,5.146269
1317,358.886719,-4.882812,-25.878906,-58.593750,-141.113281,5.150176
1318,184.570312,18.554688,6.835938,-36.621094,-311.035156,5.154082
1319,-267.578125,41.015625,34.667969,-16.601562,-290.527344,5.157988
1320,-385.742188,39.062500,28.320312,-8.300781,-178.710938,5.153149
1321,-18.066406,5.859375,-8.789062,1.464844,-65.917969,5.157055
1322,335.449219,-10.742188,-13.671875,-33.203125,-122.558594,5.160961
1323,215.332031,6.347656,6.347656,-68.359375,-294.921875,5.164868
1324,-223.144531,39.550781,39.550781,-43.945312,-330.078125,5.168774
1325,-391.113281,43.945312,44.433594,15.136719,-200.195312,5.172680
1326,-64.453125,10.742188,0.000000,18.554688,-84.472656,5.176586
1327,337.890625,-6.835938,-22.460938,-34.667969,-111.816406,5.180493
1328,279.785156,12.695312,-7.324219,-80.078125,-265.136719,5.184399
1329,-166.015625,40.039062,27.343750,-53.710938,-369.628906,5.188305
1330,-381.835938,48.339844,51.269531,11.718750,-262.207031,5.192211
1331,-113.769531,15.625000,11.718750,10.253906,-124.511719,5.196118
1332,301.269531,-14.648438,-30.273438,-40.039062,-147.949219,5.192924
1333,321.777344,9.277344,-5.371094,-56.152344,-318.847656,5.196830
1334,-103.027344,43.457031,33.691406,-33.691406,-446.289062,5.200736
1335,-410.156250,45.410156,38.574219,-9.765625,-369.140625,5.204643
1336,-201.660156,15.625000,3.417969,-9.765625,-207.519531,5.208549
1337,266.601562,4.394531,-15.625000,-25.878906,-246.093750,5.212455
1338,324.218750,14.160156,-7.812500,-66.894531,-439.453125,5.216361
1339,-108.886719,36.132812,21.972656,-80.566406,-534.179688,5.220268
1340,-438.476562,60.058594,55.175781,-12.207031,-520.996094,5.224174
1341,-296.386719,38.574219,22.949219,3.417969,-448.242188,5.228080
1342,95.703125,-8.300781,-31.250000,-65.429688,-404.785156,5.231986
1343,195.800781,0.976562,-17.089844,-106.445312,-553.222656,5.235893
1344,-174.804688,39.062500,19.531250,-109.375000,-700.195312,5.252834
1345,-546.875000,51.269531,37.109375,-57.128906,-655.761719,5.256741
1346,-466.308594,26.855469,13.183594,-32.714844,-557.128906,5.260647
1347,-37.597656,2.929688,-23.437500,-76.660156,-516.601562,5.264553
1348,135.253906,15.625000,-11.718750,-111.328125,-647.949219,5.268459
1349,-210.449219,45.898438,28.320312,-123.535156,-860.839844,5.272366
1350,-639.648438,62.011719,59.570312,-83.007812,-880.371094,5.276272
1351,-624.511719,38.085938,40.527344,-56.640625,-750.488281,5.280178
1352,-209.472656,-2.441406,-12.695312,-101.562500,-683.105469,5.284084
1353,39.550781,6.347656,-9.277344,-123.535156,-823.242188,5.287991
1354,-208.496094,33.691406,25.878906,-127.441406,-975.585938,5.291897
1355,-603.027344,53.710938,53.222656,-76.660156,-980.468750,5.295803
1356,-600.097656,41.992188,32.714844,-44.921875,-907.714844,5.293108
1357,-180.175781,5.371094,-22.949219,-95.703125,-834.472656,5.297014
1358,135.253906,8.789062,-27.832031,-127.441406,-910.156250,5.300920
1359,-66.894531,32.226562,2.929688,-139.648438,-970.703125,5.304826
1360,-500.000000,54.199219,33.203125,-98.144531,-981.933594,5.308733
1361,-573.730469,45.898438,28.320312,-52.734375,-936.035156,5.312639
1362,-188.476562,8.789062,-14.160156,-83.984375,-861.816406,5.316545
1363,142.089844,0.000000,-33.203125,-129.394531,-928.710938,5.320451
1364,-9.277344,23.437500,-6.347656,-132.324219,-981.933594,5.324358
1365,-456.054688,50.781250,34.179688,-95.214844,-970.214844,5.328264
1366,-615.722656,47.851562,45.898438,-51.757812,-973.632812,5.332170
1367,-298.828125,5.859375,-2.929688,-83.984375,-974.121094,5.336076
1368,63.964844,-12.695312,-41.015625,-137.207031,-973.632812,5.333444
1369,-23.437500,11.230469,-10.742188,-141.601562,-973.632812,5.337350
1370,-464.843750,43.945312,35.644531,-95.214844,-973.632812,5.341256
1371,-671.386719,41.503906,31.738281,-58.593750,-973.632812,5.345162
1372,-375.488281,5.371094,-15.625000,-73.730469,-973.632812,5.349069
1373,33.691406,-9.277344,-30.273438,-94.726562,-974.121094,5.352975
1374,-6.347656,13.183594,-8.300781,-111.816406,-974.121094,5.356881
1375,-447.265625,42.480469,16.601562,-93.750000,-973.632812,5.360787
1376,-666.015625,53.710938,35.644531,-32.714844,-973.632812,5.364694
1377,-417.480469,21.972656,-0.976562,-41.015625,-974.121094,5.368600
1378,-17.578125,-7.324219,-45.898438,-108.398438,-974.121094,5.372506
1379,20.019531,8.300781,-21.972656,-136.718750,-974.121094,5.376412
1380,-385.742188,35.156250,18.554688,-114.746094,-973.632812,5.392944
1381,-676.269531,41.503906,26.855469,-62.988281,-974.121094,5.396850
1382,-473.144531,11.230469,-7.324219,-48.339844,-974.121094,5.400756
1383,-15.625000,-12.695312,-30.273438,-69.824219,-974.121094,5.404663
1384,84.472656,0.488281,-15.136719,-94.726562,-973.632812,5.408569
1385,-308.105469,30.761719,21.972656,-92.285156,-973.632812,5.412475
1386,-655.761719,44.921875,44.433594,-46.386719,-973.632812,5.416381
1387,-503.417969,28.808594,14.648438,-21.972656,-973.632812,5.420288
1388,-50.781250,-6.347656,-45.898438,-66.406250,-973.632812,5.424194
1389,97.167969,-2.441406,-46.875000,-107.910156,-974.121094,5.428100
1390,-253.906250,29.785156,-4.394531,-115.722656,-968.261719,5.432006
1391,-609.863281,40.039062,20.996094,-50.781250,-986.328125,5.435913
1392,-490.234375,16.113281,-4.394531,-13.671875,-917.968750,5.435393
1393,2.441406,-6.835938,-44.433594,-40.527344,-828.613281,5.439299
1394,259.765625,1.953125,-41.503906,-64.453125,-916.992188,5.443206
1395,6.347656,31.250000,-9.765625,-60.546875,-986.816406,5.447112
1396,-396.972656,50.781250,12.695312,-16.601562,-942.382812,5.451018
1397,-369.628906,35.644531,-2.441406,23.925781,-812.011719,5.454924
1398,79.589844,0.488281,-49.804688,-3.906250,-702.148438,5.458831
1399,359.863281,-4.882812,-60.058594,-41.015625,-764.648438,5.462737
1400,145.507812,20.019531,-23.925781,-33.203125,-940.917969,5.466643
1401,-297.851562,41.015625,0.000000,-7.324219,-922.363281,5.470549
1402,-323.730469,40.039062,0.000000,27.832031,-768.066406,5.474456
1403,110.839844,-4.394531,-51.757812,0.488281,-706.054688,5.478362
1404,427.246094,-22.460938,-82.519531,-49.804688,-815.917969,5.473190
1405,256.347656,4.882812,-46.875000,-52.246094,-954.101562,5.477096
1406,-185.058594,32.226562,-15.136719,-21.972656,-973.632812,5.481002
1407,-280.273438,25.878906,-17.089844,17.089844,-915.527344,5.484909
1408,127.929688,-15.625000,-55.664062,12.695312,-859.375000,5.488815
1409,520.507812,-22.949219,-71.777344,-23.437500,-915.527344,5.492721
1410,407.226562,-4.394531,-46.875000,-37.597656,-975.097656,5.496627
1411,-64.453125,14.160156,-21.484375,-5.859375,-976.074219,5.500534
1412,-214.355469,23.925781,-3.906250,51.757812,-948.242188,5.504440
1413,154.785156,-16.601562,-46.386719,38.085938,-805.664062,5.508346
1414,572.265625,-51.269531,-83.007812,-0.488281,-789.062500,5.512252
1415,540.039062,-33.691406,-54.199219,8.300781,-922.363281,5.516159
1416,79.589844,0.488281,-27.343750,24.902344,-911.621094,5.533305
1417,-144.042969,2.929688,-22.949219,60.058594,-742.675781,5.537212
1418,165.039062,-47.851562,-56.152344,78.613281,-567.871094,5.541118
1419,605.957031,-72.753906,-77.636719,56.152344,-575.683594,5.545024
1420,618.652344,-30.273438,-57.128906,34.667969,-670.898438,5.548930
1421,172.851562,24.902344,-14.160156,56.640625,-693.359375,5.552837
1422,-124.023438,28.808594,7.324219,93.261719,-595.703125,5.556743
1423,96.191406,-8.789062,-31.250000,104.492188,-441.894531,5.560649
1424,533.203125,-33.203125,-72.753906,76.660156,-392.089844,5.564555
1425,637.207031,-21.972656,-45.410156,68.359375,-509.765625,5.568462
1426,231.933594,-3.906250,-5.371094,73.730469,-598.144531,5.572368
1427,-110.351562,12.695312,5.859375,110.839844,-460.449219,5.576274
1428,81.542969,-1.464844,-23.437500,129.882812,-255.371094,5.573435
1429,566.894531,-29.296875,-55.664062,91.308594,-189.453125,5.577342
1430,706.054688,-26.367188,-37.597656,59.570312,-277.343750,5.581248
1431,300.292969,5.859375,-5.371094,57.617188,-360.839844,5.585154
1432,-99.121094,35.644531,20.996094,99.609375,-286.132812,5.589060
1433,21.484375,11.718750,2.929688,121.582031,-157.714844,5.592967
1434,481.933594,-31.738281,-44.433594,80.078125,-138.671875,5.596873
1435,616.699219,-24.902344,-36.621094,33.691406,-262.207031,5.600779
1436,185.058594,14.160156,3.417969,16.601562,-398.925781,5.604685
1437,-306.152344,48.828125,54.199219,64.453125,-386.230469,5.608592
1438,-317.871094,27.832031,42.968750,84.960938,-301.269531,5.612498
1439,72.753906,-14.648438,-21.484375,13.671875,-260.253906,5.616404
1440,280.761719,-7.324219,-16.601562,-24.414062,-377.441406,5.613357
1441,-33.691406,14.648438,20.996094,-38.574219,-555.664062,5.617264
1442,-525.390625,38.085938,57.128906,-5.859375,-559.082031,5.621170
1443,-578.613281,30.761719,53.710938,18.066406,-496.093750,5.625076
1444,-198.242188,-9.765625,10.742188,-26.855469,-487.304688,5.628982
1445,24.414062,3.906250,21.484375,-62.988281,-676.757812,5.632889
1446,-281.738281,37.597656,59.082031,-90.820312,-910.644531,5.636795
1447,-801.757812,58.105469,86.425781,-83.496094,-968.750000,5.640701
1448,-954.101562,53.710938,94.726562,-54.687500,-970.214844,5.644607
1449,-700.195312,15.625000,52.246094,-103.515625,-973.632812,5.648514
1450,-520.996094,16.113281,33.691406,-173.339844,-974.121094,5.652420
1451,-779.296875,53.222656,67.871094,-194.824219,-973.632812,5.656326
1452,-980.957031,75.195312,98.632812,-167.968750,-973.632812,5.673092
1453,-991.210938,59.570312,91.308594,-109.863281,-973.632812,5.676999
1454,-810.546875,2.929688,39.062500,-94.726562,-973.632812,5.680905
1455,-397.460938,-10.742188,15.136719,-126.953125,-973.632812,5.684811
1456,-466.796875,35.644531,47.851562,-134.277344,-973.632812,5.688717
1457,-848.632812,62.500000,81.054688,-85.937500,-973.632812,5.692624
1458,-977.050781,46.386719,72.753906,-39.062500,-974.121094,5.696530
1459,-608.398438,-1.953125,16.601562,-32.714844,-973.632812,5.700436
1460,-59.082031,-21.972656,-17.578125,-50.781250,-974.121094,5.704342
1461,-50.781250,14.160156,12.695312,-56.152344,-972.167969,5.708249
1462,-521.972656,41.015625,40.527344,-28.808594,-970.703125,5.712155
1463,-714.843750,38.574219,43.457031,30.761719,-980.957031,5.716061
1464,-327.148438,1.953125,-4.394531,39.062500,-887.207031,5.713108
1465,173.828125,-29.296875,-39.062500,19.531250,-809.570312,5.717014
1466,191.894531,-10.253906,-9.277344,14.160156,-899.902344,5.720920
1467,-261.718750,21.972656,29.296875,39.062500,-899.414062,5.724827
1468,-518.066406,22.949219,45.410156,102.539062,-752.929688,5.728733
1469,-197.265625,-0.976562,5.859375,120.605469,-518.554688,5.732639
1470,318.847656,-15.136719,-35.644531,93.261719,-422.851562,5.736545
1471,365.722656,0.488281,-22.460938,58.593750,-519.042969,5.740452
1472,-72.265625,27.832031,8.300781,64.453125,-579.101562,5.744358
1473,-374.023438,46.875000,34.667969,128.906250,-477.050781,5.748264
1474,-146.484375,20.996094,-6.835938,148.437500,-252.929688,5.752170
1475,372.070312,-19.531250,-59.082031,104.492188,-158.203125,5.756077
1476,519.531250,-6.835938,-37.109375,83.984375,-221.191406,5.757875
1477,100.585938,24.902344,-0.976562,83.984375,-288.574219,5.761781
1478,-275.390625,46.386719,29.296875,130.371094,-182.617188,5.765687
1479,-118.652344,24.414062,3.906250,158.691406,33.203125,5.769594
1480,406.738281,-17.578125,-47.851562,138.183594,140.625000,5.773500
1481,614.746094,-7.324219,-24.414062,125.000000,63.964844,5.777406
1482,217.285156,21.484375,10.742188,89.355469,-20.507812,5.781312
1483,-225.585938,41.992188,31.738281,127.929688,54.199219,5.785219
1484,-150.878906,20.507812,19.531250,177.734375,225.097656,5.789125
1485,349.121094,-22.949219,-41.992188,130.371094,341.308594,5.793031
1486,617.675781,-20.019531,-37.109375,96.191406,255.859375,5.796937
1487,308.105469,12.207031,11.230469,83.007812,135.253906,5.800844
1488,-158.691406,43.457031,45.898438,103.027344,159.179688,5.813548
1489,-158.691406,30.761719,27.343750,129.882812,312.011719,5.817454
1490,354.003906,-6.347656,-18.554688,105.468750,407.226562,5.821360
1491,669.921875,-10.253906,-23.925781,50.781250,335.937500,5.825266
1492,408.203125,20.507812,5.371094,19.531250,158.691406,5.829173
1493,-56.640625,49.804688,42.480469,65.429688,93.750000,5.833079
1494,-92.285156,47.851562,41.015625,114.257812,194.335938,5.836985
1495,362.792969,4.394531,-13.671875,77.636719,284.179688,5.840891
1496,702.636719,-16.113281,-41.992188,6.835938,238.769531,5.844798
1497,507.812500,17.089844,0.488281,-1.953125,72.753906,5.848704
1498,-20.996094,45.898438,37.597656,37.109375,20.507812,5.852610
1499,-167.480469,38.574219,24.414062,66.406250,149.902344,5.856516
1500,243.164062,-0.488281,-21.972656,60.546875,273.437500,5.854836
1501,645.507812,-14.648438,-37.597656,34.667969,231.933594,5.858742
1502,500.976562,12.207031,-10.253906,4.394531,65.917969,5.862648
1503,-24.902344,47.363281,30.273438,23.437500,1.464844,5.866555
1504,-234.863281,44.433594,29.296875,61.523438,152.832031,5.870461
1505,138.671875,7.324219,-12.695312,71.289062,350.097656,5.874367
1506,595.703125,-8.789062,-30.273438,36.621094,331.054688,5.878273
1507,518.066406,13.671875,-4.394531,2.929688,170.898438,5.882180
1508,-18.554688,41.503906,22.949219,14.160156,86.914062,5.886086
1509,-281.250000,52.734375,40.527344,68.847656,150.878906,5.889992
1510,23.925781,24.414062,7.812500,72.753906,289.062500,5.893898
1511,480.957031,-13.183594,-45.898438,13.671875,337.890625,5.897805
1512,494.628906,2.441406,-19.531250,-0.976562,219.238281,5.893258
1513,7.812500,41.503906,29.785156,8.789062,115.722656,5.897164
1514,-314.941406,49.804688,37.597656,43.457031,211.425781,5.901071
1515,-72.753906,23.925781,4.394531,59.082031,383.300781,5.904977
1516,435.546875,-0.976562,-27.832031,32.226562,420.410156,5.908883
1517,518.554688,9.765625,-13.671875,2.929688,269.531250,5.912789
1518,56.152344,43.945312,28.320312,3.417969,126.464844,5.916696
1519,-318.847656,55.664062,51.757812,46.386719,192.382812,5.920602
1520,-125.000000,29.785156,26.855469,78.613281,346.679688,5.924508
1521,383.300781,-12.695312,-27.343750,35.156250,399.902344,5.928414
1522,527.343750,-5.371094,-20.019531,-3.906250,276.855469,5.932321
1523,115.234375,37.109375,20.996094,-9.277344,130.859375,5.936227
1524,-301.269531,60.058594,49.316406,33.691406,171.875000,5.953049
1525,-177.734375,35.644531,21.484375,69.335938,307.617188,5.956955
1526,351.074219,-3.417969,-32.714844,40.527344,380.371094,5.960861
1527,573.242188,0.976562,-23.437500,7.324219,304.199219,5.964767
1528,211.914062,32.714844,12.695312,3.417969,172.851562,5.968674
1529,-235.839844,64.941406,46.875000,51.269531,175.292969,5.972580
1530,-191.894531,46.875000,33.691406,78.613281,310.058594,5.976486
1531,301.757812,-1.464844,-28.808594,42.480469,390.625000,5.980392
1532,571.777344,0.976562,-33.691406,7.812500,319.335938,5.984299
1533,263.671875,35.644531,8.300781,-3.417969,175.781250,5.988205
1534,-227.539062,63.476562,40.039062,29.785156,169.433594,5.992111
1535,-252.441406,55.664062,29.296875,75.195312,323.730469,5.996017
1536,230.468750,12.695312,-26.855469,52.246094,418.457031,5.995534
1537,555.175781,2.441406,-36.132812,16.113281,340.820312,5.999441
1538,314.453125,35.156250,4.882812,-2.441406,188.964844,6.003347
1539,-201.660156,62.011719,38.574219,5.859375,172.363281,6.007253
1540,-303.222656,57.617188,35.156250,60.058594,298.339844,6.011159
1541,150.878906,21.484375,-15.625000,64.941406,451.171875,6.015066
1542,524.414062,7.812500,-36.621094,18.066406,412.109375,6.018972
1543,339.843750,30.273438,-3.906250,-25.390625,229.003906,6.022878
1544,-191.894531,59.570312,29.785156,-8.300781,167.480469,6.026784
1545,-330.566406,75.683594,37.597656,53.222656,270.996094,6.030691
1546,100.097656,42.968750,-9.277344,62.500000,406.250000,6.034597
1547,495.117188,4.882812,-41.503906,8.300781,407.714844,6.038503
1548,373.535156,24.414062,1.464844,-24.414062,281.738281,6.033542
1549,-161.132812,56.640625,45.410156,-5.371094,220.703125,6.037448
1550,-396.484375,58.105469,50.781250,43.457031,315.917969,6.041354
1551,-46.875000,18.554688,5.859375,50.292969,452.636719,6.045261
1552,411.132812,-12.695312,-20.996094,13.671875,426.757812,6.049167
1553,395.507812,15.136719,17.578125,-5.859375,255.371094,6.053073
1554,-113.281250,49.804688,44.433594,3.417969,138.183594,6.056979
1555,-403.808594,54.687500,49.804688,51.757812,223.144531,6.060886
1556,-97.167969,30.761719,20.996094,59.082031,359.863281,6.064792
1557,374.511719,-11.718750,-39.062500,6.835938,385.742188,6.068698
1558,396.972656,2.441406,-21.972656,-16.113281,270.996094,6.072604
1559,-78.613281,49.316406,28.808594,-1.464844,135.253906,6.076511
1560,-424.316406,60.546875,41.992188,44.433594,155.761719,6.093498
1561,-205.566406,27.832031,1.464844,45.898438,303.222656,6.097404
1562,301.757812,1.464844,-37.109375,14.160156,335.449219,6.101310
1563,419.433594,15.625000,-17.578125,-0.976562,190.429688,6.105217
1564,-23.925781,49.804688,24.414062,0.488281,43.457031,6.109123
1565,-415.527344,72.265625,55.175781,47.363281,91.796875,6.113029
1566,-250.000000,50.292969,36.132812,72.753906,271.972656,6.116935
1567,242.187500,2.929688,-25.878906,30.761719,298.828125,6.120842
1568,401.855469,2.929688,-28.808594,-11.718750,165.527344,6.124748
1569,19.531250,41.015625,18.066406,-26.367188,40.039062,6.128654
1570,-410.156250,64.941406,47.851562,10.253906,66.406250,6.132560
1571,-324.707031,42.968750,20.019531,42.968750,186.035156,6.136467
1572,171.386719,-2.929688,-35.156250,11.230469,277.832031,6.133122
1573,402.343750,0.000000,-26.855469,-21.972656,184.570312,6.137028
1574,66.406250,36.132812,15.136719,-18.554688,3.417969,6.140934
1575,-396.484375,57.617188,42.968750,13.183594,40.039062,6.144841
1576,-361.328125,45.898438,30.761719,40.039062,203.613281,6.148747
1577,125.000000,11.230469,-10.742188,30.761719,291.015625,6.152653
1578,396.972656,6.835938,-21.972656,-8.789062,174.804688,6.156559
1579,118.164062,34.667969,6.835938,-34.667969,-6.347656,6.160466
1580,-372.070312,58.593750,41.503906,-1.953125,29.296875,6.164372
1581,-403.808594,58.105469,46.875000,54.687500,158.691406,6.168278
1582,40.527344,13.671875,-7.812500,25.878906,249.511719,6.172184
1583,340.332031,-8.789062,-41.015625,-21.484375,207.519531,6.176091
1584,130.371094,28.808594,4.882812,-30.273438,1.464844,6.173069
1585,-359.863281,56.640625,45.898438,-9.277344,-20.019531,6.176975
1586,-474.609375,45.898438,37.109375,26.367188,157.714844,6.180881
1587,-59.082031,6.347656,-10.742188,20.996094,272.949219,6.184788
1588,323.730469,-1.953125,-20.996094,1.953125,184.082031,6.188694
1589,189.453125,32.714844,19.042969,-5.859375,19.042969,6.192600
1590,-318.847656,53.710938,45.898438,-1.953125,-6.347656,6.196506
1591,-492.675781,50.292969,50.292969,32.226562,84.472656,6.200413
1592,-105.957031,16.601562,9.277344,47.363281,215.820312,6.204319
1593,300.292969,-9.277344,-33.691406,0.976562,216.796875,6.208225
1594,228.515625,21.972656,-0.488281,-20.019531,54.687500,6.212131
1595,-276.367188,54.687500,39.550781,-3.417969,-16.601562,6.216038
1596,-496.093750,56.640625,48.339844,33.203125,78.125000,6.233381
1597,-163.574219,17.578125,3.906250,34.667969,201.660156,6.237287
1598,281.738281,-5.859375,-29.785156,-1.953125,177.734375,6.241194
1599,277.343750,20.507812,-3.417969,-22.460938,35.156250,6.245100
1600,-197.753906,57.617188,40.039062,-14.648438,-95.703125,6.249006
1601,-488.281250,66.406250,64.941406,30.761719,-68.359375,6.252912
1602,-237.304688,28.808594,20.996094,31.738281,101.074219,6.256819
1603,249.023438,-0.976562,-29.785156,-15.625000,117.187500,6.260725
1604,300.292969,15.625000,-3.417969,-15.625000,-0.488281,6.264631
1605,-176.269531,48.339844,41.503906,-16.113281,-86.425781,6.268537
1606,-498.046875,63.964844,69.335938,11.230469,-109.863281,6.272444
1607,-289.062500,31.738281,30.273438,21.972656,14.648438,6.276350
1608,184.570312,-5.859375,-22.460938,-20.019531,39.062500,6.275267
1609,303.222656,8.789062,-4.882812,-46.386719,-104.492188,6.279173
1610,-108.398438,43.945312,34.667969,-44.921875,-197.753906,6.283079
1611,-482.421875,63.964844,56.640625,-10.742188,-171.386719,6.286985
1612,-335.937500,40.527344,18.066406,1.953125,-44.921875,6.290892
1613,165.527344,3.906250,-29.296875,-31.250000,38.574219,6.294798
1614,349.121094,12.207031,-12.207031,-53.222656,-50.292969,6.298704
1615,-28.320312,43.457031,25.390625,-50.781250,-237.792969,6.302610
1616,-444.335938,62.988281,52.246094,-19.042969,-247.558594,6.306517
1617,-337.402344,50.292969,43.457031,17.578125,-81.054688,6.310423
1618,139.160156,0.976562,-18.066406,-16.601562,23.925781,6.314329
1619,352.050781,-0.976562,-26.367188,-49.316406,-65.917969,6.318235
1620,30.273438,36.621094,13.671875,-60.546875,-226.562500,6.313368
1621,-416.015625,59.082031,41.503906,-32.226562,-236.816406,6.317274
1622,-393.066406,42.968750,27.343750,0.488281,-129.394531,6.321180
1623,77.636719,3.906250,-16.113281,-7.812500,-76.660156,6.325086
1624,366.699219,2.929688,-14.160156,-20.019531,-195.800781,6.328993
1625,87.402344,30.273438,22.949219,-43.945312,-366.210938,6.332899
1626,-393.066406,55.175781,49.316406,-48.339844,-402.343750,6.336805
1627,-420.410156,54.687500,46.386719,-6.347656,-315.429688,6.340711
1628,26.855469,13.183594,-3.417969,-8.300781,-238.281250,6.344618
1629,330.566406,-14.160156,-42.480469,-69.824219,-261.718750,6.348524
1630,116.699219,19.531250,-1.953125,-80.078125,-384.277344,6.352430
1631,-350.097656,53.710938,40.039062,-62.500000,-461.914062,6.356336
1632,-446.289062,43.945312,26.855469,-41.015625,-380.859375,6.373287
1633,-26.855469,7.324219,-18.554688,-29.296875,-263.671875,6.377194
1634,358.398438,-3.417969,-33.691406,-45.410156,-326.660156,6.381100
1635,210.937500,20.019531,-4.882812,-64.453125,-483.886719,6.385006
1636,-274.414062,47.851562,32.226562,-48.828125,-541.015625,6.388912
1637,-404.296875,58.593750,45.410156,-3.417969,-479.980469,6.392819
1638,-27.832031,23.437500,-7.324219,-13.671875,-332.519531,6.396725
1639,374.511719,-6.347656,-50.781250,-43.945312,-338.867188,6.400631
1640,303.222656,20.507812,-19.531250,-58.105469,-497.558594,6.404537
1641,-198.242188,50.781250,20.019531,-63.476562,-573.730469,6.408444
1642,-410.644531,62.011719,38.574219,-15.136719,-534.179688,6.412350
1643,-70.800781,31.738281,-4.882812,-0.488281,-385.742188,6.416256
1644,365.234375,-9.277344,-55.664062,-41.503906,-364.257812,6.413023
1645,361.816406,8.789062,-24.902344,-50.781250,-529.785156,6.416929
1646,-89.843750,42.968750,30.761719,-24.902344,-614.257812,6.420835
1647,-373.046875,59.570312,43.945312,11.718750,-528.808594,6.424741
1648,-108.398438,37.597656,-2.441406,6.835938,-359.863281,6.428648
1649,390.136719,13.183594,-41.015625,-9.765625,-286.621094,6.432554
1650,445.800781,22.460938,-30.273438,-18.554688,-361.816406,6.436460
1651,-8.789062,47.851562,-0.976562,-24.414062,-427.246094,6.440366
1652,-317.871094,72.265625,24.414062,24.414062,-406.250000,6.444273
1653,-89.355469,49.804688,-1.953125,47.851562,-276.855469,6.448179
1654,401.367188,1.464844,-64.941406,4.394531,-159.667969,6.452085
1655,528.320312,5.371094,-53.710938,-10.253906,-191.894531,6.455991
1656,117.187500,43.457031,-1.953125,-1.953125,-264.160156,6.455757
1657,-264.648438,61.523438,24.902344,31.250000,-213.867188,6.459663
1658,-107.421875,39.062500,-1.464844,54.199219,-69.824219,6.463570
1659,395.019531,-6.347656,-63.476562,31.250000,45.410156,6.467476
1660,588.867188,1.464844,-59.082031,21.484375,20.019531,6.471382
1661,221.679688,45.898438,-0.976562,21.972656,-59.570312,6.475288
1662,-211.914062,65.429688,30.761719,36.132812,-37.109375,6.479195
1663,-124.511719,49.804688,16.601562,68.359375,72.265625,6.483101
1664,367.187500,1.464844,-44.921875,47.363281,185.546875,6.487007
1665,621.093750,-9.765625,-59.082031,14.648438,141.601562,6.490913
1666,311.523438,32.226562,-15.625000,8.789062,68.359375,6.494820
1667,-155.273438,61.523438,20.019531,26.367188,100.585938,6.498726
1668,-135.253906,44.433594,7.812500,46.875000,173.339844,6.513128
1669,361.816406,-3.417969,-44.921875,42.480469,260.253906,6.517035
1670,684.082031,-10.742188,-53.222656,28.808594,237.304688,6.520941
1671,430.664062,31.250000,-4.882812,18.066406,111.816406,6.524847
1672,-79.589844,60.546875,36.621094,17.578125,79.101562,6.528753
1673,-138.671875,54.199219,35.644531,51.269531,177.734375,6.532660
1674,333.007812,10.742188,-20.996094,52.246094,278.808594,6.536566
1675,680.664062,-14.648438,-54.199219,12.695312,269.042969,6.540472
1676,475.097656,17.089844,-10.253906,3.906250,149.902344,6.544378
1677,-43.945312,51.269531,36.621094,18.066406,98.632812,6.548285
1678,-165.527344,49.804688,46.386719,50.781250,174.804688,6.552191
1679,245.605469,0.488281,-15.136719,25.390625,291.015625,6.556097
1680,649.902344,-19.531250,-53.710938,-1.953125,332.519531,6.553116
1681,529.785156,17.578125,-11.718750,9.765625,221.679688,6.557023
1682,-8.789062,60.058594,39.550781,15.136719,100.585938,6.560929
1683,-236.816406,62.988281,45.410156,26.367188,145.507812,6.564835
1684,137.207031,19.531250,2.441406,30.273438,294.921875,6.568741
1685,603.515625,-6.347656,-23.925781,26.855469,355.468750,6.572648
1686,520.507812,17.578125,2.929688,11.718750,238.769531,6.576554
1687,-35.644531,54.199219,48.828125,-1.953125,80.566406,6.580460
1688,-317.382812,63.964844,65.917969,18.554688,114.746094,6.584366
1689,14.160156,33.691406,32.226562,37.597656,242.675781,6.588273
1690,505.859375,-14.160156,-34.179688,6.835938,297.363281,6.592179
1691,524.414062,-1.464844,-17.089844,-3.906250,251.953125,6.596085
1692,5.371094,42.968750,47.851562,4.394531,133.300781,6.593377
1693,-352.050781,56.640625,67.871094,19.042969,112.792969,6.597283
1694,-84.472656,21.484375,26.367188,20.507812,251.953125,6.601190
1695,477.050781,-18.066406,-27.832031,14.160156,340.332031,6.605096
1696,590.332031,-0.976562,-14.648438,13.671875,273.437500,6.609002
1697,105.468750,43.945312,42.968750,8.300781,142.578125,6.612908
1698,-300.781250,62.500000,73.242188,14.648438,106.933594,6.616815
1699,-95.214844,42.968750,38.085938,21.972656,224.121094,6.620721
1700,463.378906,-8.789062,-33.691406,2.441406,318.847656,6.624627
1701,653.320312,-7.812500,-22.460938,10.742188,253.417969,6.628533
1702,207.519531,41.015625,38.085938,22.460938,90.332031,6.632440
1703,-294.921875,68.847656,68.847656,16.113281,16.601562,6.636346
1704,-184.082031,44.921875,40.527344,22.460938,135.253906,6.653385
1705,404.296875,-10.253906,-27.343750,13.183594,281.250000,6.657291
1706,680.175781,-7.324219,-24.414062,11.230469,259.277344,6.661198
1707,280.273438,35.644531,31.738281,17.089844,146.972656,6.665104
1708,-268.066406,65.917969,74.218750,19.531250,98.632812,6.669010
1709,-232.421875,51.757812,53.710938,32.714844,152.832031,6.672916
1710,334.960938,-2.441406,-25.390625,28.808594,276.367188,6.676823
1711,666.992188,-14.160156,-42.968750,24.414062,301.269531,6.680729
1712,340.820312,29.785156,18.066406,23.925781,169.433594,6.684635
1713,-232.910156,64.941406,61.523438,11.718750,118.652344,6.688541
1714,-268.554688,57.617188,57.617188,30.761719,216.308594,6.692448
1715,270.019531,1.464844,-12.695312,38.085938,366.210938,6.696354
1716,661.132812,-18.066406,-45.898438,37.109375,384.765625,6.698636
1717,408.203125,21.484375,4.394531,39.550781,247.070312,6.702542
1718,-203.125000,53.222656,50.781250,24.414062,191.406250,6.706448
1719,-328.125000,48.828125,50.292969,39.062500,244.140625,6.710354
1720,180.664062,1.953125,-16.113281,40.527344,372.070312,6.714261
1721,637.207031,-17.578125,-40.039062,52.734375,466.308594,6.718167
1722,449.218750,11.718750,1.464844,61.523438,432.128906,6.722073
1723,-180.664062,52.734375,50.292969,41.503906,333.496094,6.725979
1724,-382.324219,68.359375,69.824219,59.570312,320.800781,6.729886
1725,95.703125,23.925781,15.136719,77.148438,436.523438,6.733792
1726,588.867188,-17.089844,-43.945312,71.777344,528.320312,6.737698
1727,478.027344,10.742188,-10.742188,75.195312,436.035156,6.741604
1728,-137.207031,57.128906,49.804688,41.503906,338.867188,6.753516
1729,-411.132812,66.894531,62.500000,28.320312,347.167969,6.757422
1730,-10.742188,20.019531,2.441406,23.437500,464.843750,6.761328
1731,531.738281,-18.554688,-48.339844,24.902344,595.214844,6.765234
1732,525.878906,10.742188,-18.554688,38.085938,503.906250,6.769141
1733,-62.500000,64.453125,45.410156,20.019531,329.589844,6.773047
1734,-434.570312,71.777344,66.406250,6.835938,311.523438,6.776953
1735,-76.660156,36.621094,25.390625,22.949219,418.457031,6.780859
1736,502.929688,-17.578125,-41.992188,19.531250,516.113281,6.784766
1737,557.617188,-10.742188,-37.597656,7.812500,484.863281,6.788672
1738,20.996094,50.781250,32.714844,4.394531,336.914062,6.792578
1739,-407.226562,67.871094,58.593750,-5.371094,306.152344,6.796484
1740,-153.808594,26.367188,15.625000,-3.906250,439.941406,6.793521
1741,476.562500,-19.042969,-44.921875,4.882812,539.062500,6.797427
1742,627.441406,-6.347656,-37.109375,20.507812,537.109375,6.801333
1743,101.562500,43.457031,30.761719,17.578125,390.625000,6.805240
1744,-383.300781,70.312500,72.753906,9.765625,285.156250,6.809146
1745,-217.285156,40.039062,40.527344,20.019531,405.273438,6.813052
1746,395.507812,-7.324219,-24.902344,37.597656,531.738281,6.816958
1747,626.953125,-10.742188,-33.203125,43.457031,552.246094,6.820865
1748,175.292969,31.738281,20.996094,26.855469,448.730469,6.824771
1749,-376.953125,66.894531,67.871094,14.160156,341.308594,6.828677
1750,-272.460938,58.105469,60.546875,27.832031,371.582031,6.832583
1751,346.191406,-0.976562,-22.460938,15.136719,482.910156,6.836490
1752,629.394531,-27.343750,-61.523438,-6.835938,563.476562,6.833565
1753,245.117188,25.390625,7.324219,-6.835938,452.636719,6.837471
1754,-355.957031,67.382812,69.824219,-20.507812,348.144531,6.841377
1755,-372.558594,46.875000,56.152344,-22.460938,397.460938,6.845284
1756,241.699219,-5.859375,-18.554688,-7.812500,528.808594,6.849190
1757,655.761719,-16.601562,-43.945312,20.507812,563.964844,6.853096
1758,330.078125,20.507812,0.976562,15.625000,457.519531,6.857002
1759,-322.753906,62.011719,59.570312,-23.437500,343.750000,6.860909
1760,-409.667969,65.917969,71.289062,-16.113281,322.753906,6.864815
1761,165.527344,9.277344,-7.324219,0.000000,471.679688,6.868721
1762,625.000000,-27.343750,-57.617188,10.253906,614.746094,6.872627
1763,395.507812,7.324219,-7.324219,18.554688,535.156250,6.876534
1764,-284.179688,63.476562,59.570312,-8.789062,386.230469,6.876095
1765,-494.628906,66.894531,70.312500,-20.019531,359.863281,6.880001
1766,26.855469,6.835938,-2.929688,-19.042969,478.027344,6.883908
1767,568.847656,-24.902344,-56.152344,-10.742188,564.941406,6.887814
1768,463.378906,13.671875,-9.277344,4.882812,488.769531,6.891720
1769,-197.265625,74.707031,72.265625,-5.859375,342.773438,6.895626
1770,-500.976562,84.960938,92.285156,-12.695312,306.640625,6.899533
1771,-48.339844,29.296875,23.437500,-25.878906,427.246094,6.903439
1772,519.042969,-26.855469,-52.246094,-33.691406,579.101562,6.907345
1773,487.304688,-3.417969,-25.390625,-17.089844,573.242188,6.911251
1774,-148.925781,58.105469,57.617188,-38.085938,433.593750,6.915158
1775,-528.808594,72.753906,88.378906,-60.546875,351.562500,6.919064
1776,-140.625000,26.367188,28.320312,-63.964844,410.156250,6.935718
1777,532.714844,-16.601562,-38.574219,-37.109375,576.171875,6.939624
1778,599.121094,-0.488281,-21.972656,-20.507812,607.421875,6.943530
1779,-61.523438,57.128906,49.316406,-35.644531,494.628906,6.947437
1780,-504.394531,92.773438,94.238281,-45.898438,410.156250,6.951343
1781,-181.640625,54.687500,52.734375,-44.433594,490.234375,6.955249
1782,475.585938,-23.925781,-35.156250,-38.574219,574.707031,6.959155
1783,625.488281,-13.671875,-33.203125,-28.320312,548.828125,6.963062
1784,-9.765625,55.175781,42.968750,-46.386719,481.933594,6.966968
1785,-557.128906,86.914062,99.121094,-61.035156,408.203125,6.970874
1786,-320.312500,52.246094,62.500000,-59.570312,466.796875,6.974780
1787,367.187500,-18.066406,-39.550781,-48.828125,634.765625,6.978687
1788,625.000000,-13.183594,-44.433594,-17.089844,656.250000,6.973499
1789,105.957031,51.757812,36.621094,-23.925781,501.953125,6.977406
1790,-510.253906,86.425781,95.214844,-68.359375,341.796875,6.981312
1791,-401.855469,48.828125,67.871094,-76.171875,358.398438,6.985218
1792,321.289062,-28.808594,-10.742188,-31.250000,484.375000,6.989124
1793,690.429688,-40.039062,-21.484375,24.902344,525.878906,6.993031
1794,229.980469,33.203125,40.039062,13.671875,455.078125,6.996937
1795,-443.847656,88.867188,91.308594,-59.082031,305.664062,7.000843
1796,-414.550781,83.007812,77.148438,-83.984375,285.156250,7.004749
1797,288.085938,16.601562,-14.648438,-68.847656,403.808594,7.008656
1798,687.011719,-15.625000,-63.476562,-44.921875,481.933594,7.012562
1799,289.550781,45.898438,11.230469,-40.527344,393.066406,7.016468
1800,-451.171875,104.980469,86.914062,-76.660156,229.980469,7.033020
