,TP9,AF7,AF8,TP10,Right AUX,timestamps
0,326.171875,24.902344,22.460938,-13.183594,8.300781,0.000000
1,-125.976562,37.597656,31.738281,-40.527344,-84.472656,0.003906
2,-373.046875,37.597656,38.085938,4.882812,-25.390625,0.007812
3,-89.843750,30.761719,32.714844,63.476562,96.679688,0.011719
4,0.000000,-0.488281,-0.488281,0.000000,0.000000,0.015625
5,0.976562,-0.488281,-0.488281,-0.488281,-2.441406,0.019531
6,-14.160156,0.976562,0.976562,0.000000,9.765625,0.023438
7,29.296875,-3.417969,-2.929688,1.464844,-9.277344,0.027344
8,-114.257812,18.066406,13.183594,-3.417969,40.039062,0.031250
9,-354.980469,42.480469,34.667969,15.136719,339.843750,0.035156
10,-101.074219,33.691406,28.320312,64.453125,506.835938,0.039062
11,349.609375,27.832031,22.949219,72.265625,488.281250,0.042969
12,384.277344,26.855469,24.902344,29.296875,413.574219,0.060095
13,-42.480469,37.597656,31.250000,-6.835938,276.855469,0.064001
14,-350.097656,41.992188,37.597656,15.136719,309.082031,0.067907
15,-148.925781,29.785156,37.597656,67.871094,420.410156,0.071814
16,300.292969,22.460938,29.785156,77.148438,436.035156,0.075720
17,398.925781,22.460938,27.832031,33.691406,345.703125,0.079626
18,6.835938,35.156250,32.714844,-7.812500,201.171875,0.083532
19,-350.097656,40.039062,38.085938,1.953125,191.406250,0.087439
20,-213.378906,29.296875,32.226562,50.781250,280.761719,0.091345
21,252.929688,21.972656,21.972656,75.683594,324.707031,0.095251
22,412.597656,23.925781,19.042969,35.156250,260.742188,0.099157
23,62.988281,41.015625,29.785156,-8.300781,149.414062,0.103064
24,-326.171875,44.921875,40.039062,-3.906250,140.136719,0.100057
25,-256.835938,33.203125,35.644531,38.574219,238.769531,0.103963
26,200.683594,22.949219,26.855469,72.265625,284.667969,0.107869
27,418.457031,20.507812,21.484375,47.363281,193.359375,0.111776
28,121.582031,31.250000,26.367188,0.976562,130.859375,0.115682
29,-300.292969,39.062500,35.156250,2.929688,122.070312,0.119588
30,-290.039062,34.179688,34.667969,48.828125,159.667969,0.123494
31,162.597656,26.855469,25.390625,79.101562,209.960938,0.127401
32,429.687500,22.460938,20.507812,54.199219,179.687500,0.131307
33,187.988281,29.785156,28.320312,-0.488281,86.914062,0.135213
34,-248.535156,44.433594,38.085938,-1.953125,35.644531,0.139119
35,-301.269531,43.457031,35.156250,46.875000,103.027344,0.143026
36,127.929688,32.226562,21.972656,78.125000,188.476562,0.142049
37,442.871094,22.460938,14.160156,62.500000,168.457031,0.145956
38,247.070312,29.296875,17.578125,10.742188,77.148438,0.149862
39,-215.820312,42.968750,27.832031,-12.695312,9.277344,0.153768
40,-338.867188,40.039062,30.761719,24.902344,45.410156,0.157674
41,48.828125,33.203125,20.019531,73.730469,163.085938,0.161581
42,401.855469,25.878906,13.671875,60.546875,177.734375,0.165487
43,279.296875,24.902344,22.460938,9.277344,63.964844,0.169393
44,-177.246094,39.550781,33.203125,-4.394531,-22.460938,0.173299
45,-375.488281,39.062500,38.085938,27.343750,40.039062,0.177206
46,-40.039062,22.949219,30.273438,62.988281,150.390625,0.181112
47,365.722656,18.066406,22.460938,55.175781,137.695312,0.185018
48,322.265625,24.902344,25.878906,15.136719,58.593750,0.200104
49,-131.835938,35.156250,33.203125,-15.625000,-27.832031,0.204010
50,-375.000000,38.574219,37.109375,9.765625,6.835938,0.207916
51,-80.566406,28.320312,31.250000,66.406250,132.812500,0.211823
52,341.308594,19.531250,22.949219,64.453125,128.417969,0.215729
53,354.492188,23.437500,20.019531,9.765625,52.246094,0.219635
54,-73.242188,40.527344,28.808594,-20.507812,-43.945312,0.223541
55,-369.140625,44.433594,37.597656,2.929688,-72.265625,0.227448
56,-150.878906,27.343750,34.667969,51.757812,33.203125,0.231354
57,302.734375,19.042969,26.367188,64.941406,88.378906,0.235260
58,392.578125,21.972656,20.019531,38.085938,50.292969,0.239166
59,-7.812500,29.785156,30.761719,9.277344,-10.253906,0.243073
60,-353.515625,33.203125,40.039062,15.136719,13.671875,0.240106
61,-194.335938,29.785156,32.714844,68.359375,117.187500,0.244012
62,270.019531,21.972656,22.949219,87.402344,150.878906,0.247918
63,424.804688,20.019531,21.972656,48.339844,74.707031,0.251824
64,48.339844,26.855469,30.761719,-3.417969,-31.738281,0.255731
65,-351.074219,34.179688,37.109375,0.488281,-28.808594,0.259637
66,-236.816406,31.738281,33.203125,62.988281,75.195312,0.263543
67,231.933594,25.390625,22.460938,83.007812,120.117188,0.267449
68,419.921875,21.484375,21.972656,39.550781,55.664062,0.271356
69,103.027344,29.296875,31.738281,-11.230469,-54.199219,0.275262
70,-311.523438,40.527344,39.550781,-9.765625,-93.750000,0.279168
71,-292.968750,30.273438,37.597656,36.132812,-20.996094,0.283074
72,164.062500,17.578125,29.296875,61.523438,62.988281,0.280931
73,419.921875,20.507812,26.855469,33.203125,15.625000,0.284837
74,152.832031,26.855469,26.855469,-14.648438,-80.078125,0.288743
75,-286.132812,30.761719,32.226562,-14.160156,-52.246094,0.292650
76,-321.777344,29.785156,35.644531,38.574219,60.546875,0.296556
77,115.722656,23.925781,25.878906,77.636719,117.187500,0.300462
78,417.968750,17.089844,23.925781,59.082031,96.679688,0.304368
79,210.937500,21.972656,31.738281,11.718750,10.742188,0.308275
80,-240.234375,37.597656,38.085938,2.441406,-83.496094,0.312181
81,-336.425781,35.156250,37.597656,42.968750,-52.246094,0.316087
82,67.382812,21.972656,27.832031,82.031250,91.796875,0.319993
83,404.785156,18.066406,21.972656,62.988281,147.949219,0.323900
84,256.347656,25.390625,24.902344,3.417969,52.246094,0.340111
85,-207.031250,39.062500,33.203125,-14.648438,-27.343750,0.344017
86,-370.605469,41.015625,36.621094,19.531250,32.714844,0.347923
87,-1.464844,31.738281,29.785156,63.964844,132.812500,0.351830
88,392.089844,24.902344,22.949219,64.941406,117.675781,0.355736
89,312.988281,29.296875,27.343750,9.277344,4.882812,0.359642
90,-151.855469,40.527344,35.644531,-31.738281,-41.503906,0.363548
91,-372.070312,41.503906,36.621094,-1.464844,-0.976562,0.367455
92,-58.105469,29.296875,30.761719,52.246094,99.609375,0.371361
93,358.398438,19.531250,20.507812,51.757812,100.585938,0.375267
94,340.332031,21.484375,20.996094,6.347656,41.015625,0.379173
95,-111.328125,32.714844,35.156250,-21.484375,-16.601562,0.383080
96,-387.695312,33.691406,40.039062,7.812500,-17.578125,0.380056
97,-127.929688,24.902344,33.203125,62.988281,74.218750,0.383962
98,313.964844,16.601562,25.878906,71.289062,65.917969,0.387868
99,366.699219,17.578125,23.437500,26.855469,1.953125,0.391774
100,-37.109375,29.296875,32.226562,-11.230469,-65.917969,0.395681
101,-366.699219,33.203125,42.968750,1.464844,-50.781250,0.399587
102,-179.687500,29.785156,35.644531,57.128906,46.386719,0.403493
103,300.292969,19.042969,20.996094,85.449219,82.519531,0.407399
104,416.015625,14.648438,20.507812,44.921875,41.503906,0.411306
105,23.925781,30.273438,30.761719,-1.464844,-88.867188,0.415212
106,-348.632812,38.085938,39.062500,8.300781,-107.421875,0.419118
107,-221.191406,22.949219,36.132812,62.011719,45.410156,0.423024
108,261.718750,7.324219,28.320312,94.238281,67.871094,0.420246
109,448.730469,15.136719,23.437500,60.058594,8.300781,0.424152
110,102.539062,34.667969,26.367188,5.371094,-24.902344,0.428058
111,-310.058594,37.597656,34.667969,4.882812,-14.648438,0.431965
112,-250.976562,26.367188,34.667969,59.082031,90.820312,0.435871
113,219.726562,20.019531,23.437500,96.191406,117.675781,0.439777
114,448.242188,19.042969,18.554688,60.058594,71.777344,0.443683
115,150.390625,21.972656,26.855469,0.488281,24.902344,0.447590
116,-274.414062,30.273438,37.597656,1.953125,-21.484375,0.451496
117,-283.691406,28.808594,34.667969,49.316406,34.667969,0.455402
118,154.296875,14.648438,24.414062,89.843750,115.722656,0.459308
119,454.589844,6.347656,19.042969,75.683594,100.097656,0.463215
120,229.003906,18.554688,18.554688,19.042969,-20.507812,0.480081
121,-229.492188,29.296875,23.925781,0.488281,-65.917969,0.483987
122,-298.339844,22.949219,27.343750,54.199219,62.011719,0.487893
123,122.070312,15.136719,13.183594,106.933594,119.628906,0.491799
124,449.218750,10.742188,-0.976562,86.914062,79.101562,0.495706
125,288.085938,13.183594,2.929688,34.179688,34.179688,0.499612
126,-156.738281,21.484375,13.671875,29.296875,-47.363281,0.503518
127,-297.851562,21.972656,13.183594,73.242188,-9.765625,0.507424
128,73.242188,11.718750,1.464844,122.070312,124.511719,0.511331
129,459.960938,0.976562,-6.835938,120.605469,142.578125,0.515237
130,371.093750,5.859375,-3.906250,71.289062,33.691406,0.519143
131,-86.425781,19.042969,7.812500,49.804688,-75.683594,0.523049
132,-292.968750,20.019531,10.253906,77.636719,-39.550781,0.520135
133,28.808594,5.859375,-3.417969,124.023438,71.289062,0.524041
134,444.824219,-4.394531,-14.648438,126.953125,95.703125,0.527947
135,416.015625,0.488281,-14.160156,70.312500,4.394531,0.531853
136,-36.621094,10.742188,-7.812500,39.062500,-75.195312,0.535760
137,-293.457031,11.718750,-4.882812,67.382812,-24.414062,0.539666
138,-18.066406,-1.953125,-12.695312,109.375000,89.843750,0.543572
139,420.898438,-12.207031,-23.925781,114.257812,97.656250,0.547478
140,458.984375,-10.253906,-26.855469,68.359375,5.371094,0.551385
141,33.203125,4.394531,-17.578125,30.761719,-54.199219,0.555291
142,-280.273438,15.625000,-9.765625,50.781250,-15.625000,0.559197
143,-64.453125,13.671875,-15.136719,111.328125,94.238281,0.563103
144,393.066406,3.417969,-24.902344,127.929688,95.214844,0.562538
145,485.351562,-3.417969,-27.832031,76.660156,-43.945312,0.566445
146,97.167969,13.671875,-19.531250,36.132812,-132.324219,0.570351
147,-248.535156,16.113281,-8.300781,48.828125,-81.054688,0.574257
148,-108.398438,3.906250,-9.765625,107.421875,45.898438,0.578163
149,351.074219,-2.929688,-16.113281,138.671875,82.031250,0.582070
150,508.300781,-5.859375,-15.136719,91.308594,2.929688,0.585976
151,151.855469,6.347656,-8.300781,40.039062,-98.144531,0.589882
152,-244.628906,19.042969,0.976562,44.433594,-112.304688,0.593788
153,-177.246094,8.300781,1.464844,89.843750,3.906250,0.597695
154,289.550781,-11.230469,-5.371094,115.722656,94.726562,0.601601
155,514.160156,-10.742188,-8.300781,82.031250,64.453125,0.605507
156,203.613281,6.347656,-1.953125,27.832031,-36.621094,0.620109
157,-229.980469,20.507812,9.765625,23.437500,-41.015625,0.624015
158,-218.261719,16.601562,12.207031,76.171875,60.058594,0.627922
159,225.097656,6.347656,10.253906,108.398438,97.167969,0.631828
160,487.792969,3.906250,8.300781,77.636719,77.636719,0.635734
161,244.628906,10.742188,9.765625,33.203125,-8.789062,0.639640
162,-197.753906,21.484375,15.625000,23.437500,-103.515625,0.643547
163,-260.253906,21.972656,13.671875,55.664062,-23.437500,0.647453
164,141.601562,10.742188,7.812500,94.238281,112.304688,0.651359
165,458.984375,0.976562,4.394531,76.171875,122.558594,0.655265
166,287.597656,6.835938,10.253906,20.996094,14.160156,0.659172
167,-175.781250,14.160156,26.855469,10.742188,-66.894531,0.663078
168,-307.128906,16.601562,26.855469,51.757812,-14.648438,0.660110
169,79.589844,14.160156,10.742188,96.679688,68.847656,0.664017
170,444.824219,5.859375,5.371094,87.890625,83.984375,0.667923
171,328.613281,14.648438,11.718750,32.714844,-3.417969,0.671829
172,-142.578125,33.203125,23.925781,10.742188,-62.500000,0.675735
173,-330.566406,35.644531,29.296875,50.292969,5.859375,0.679642
174,17.089844,22.460938,24.414062,102.050781,79.589844,0.683548
175,416.503906,11.230469,13.671875,94.238281,52.246094,0.687454
176,362.792969,13.183594,12.207031,41.015625,-28.808594,0.691360
177,-88.378906,27.832031,26.367188,21.972656,-106.933594,0.695267
178,-328.613281,34.667969,32.714844,51.757812,-99.121094,0.699173
179,-47.851562,21.972656,23.925781,96.679688,27.343750,0.703079
180,387.207031,9.277344,17.578125,104.003906,69.824219,0.700809
181,400.390625,5.859375,16.113281,54.199219,37.109375,0.704715
182,-49.316406,19.531250,21.972656,10.742188,11.230469,0.708622
183,-344.238281,30.273438,32.714844,28.808594,13.671875,0.712528
184,-113.769531,27.832031,29.296875,82.519531,66.406250,0.716434
185,337.402344,18.554688,19.042969,91.796875,87.890625,0.720340
186,411.621094,19.531250,20.507812,45.898438,43.457031,0.724247
187,7.812500,26.367188,32.226562,14.648438,-73.242188,0.728153
188,-330.078125,26.367188,40.527344,36.621094,-66.894531,0.732059
189,-170.410156,21.972656,31.738281,72.753906,69.824219,0.735965
190,287.109375,15.136719,18.066406,74.218750,102.050781,0.739872
191,423.828125,19.531250,15.136719,33.203125,47.851562,0.743778
192,62.011719,25.390625,18.554688,-14.160156,-83.496094,0.760116
193,-321.777344,29.785156,24.414062,-6.347656,-111.328125,0.764022
194,-215.332031,42.480469,23.925781,55.664062,17.578125,0.767928
195,263.671875,37.109375,12.695312,91.308594,79.101562,0.771835
196,457.519531,23.437500,8.300781,61.035156,15.625000,0.775741
197,137.695312,32.714844,15.136719,4.394531,-84.472656,0.779647
198,-281.738281,44.921875,24.902344,0.488281,-81.542969,0.783553
199,-254.394531,41.992188,26.367188,54.687500,47.363281,0.787460
200,206.054688,30.273438,14.648438,89.843750,147.460938,0.791366
201,461.914062,27.832031,12.695312,67.382812,101.562500,0.795272
202,205.078125,34.179688,20.507812,16.601562,-16.601562,0.799178
203,-238.281250,38.085938,28.808594,9.277344,-47.363281,0.803085
204,-279.296875,29.785156,32.714844,58.593750,4.394531,0.801556
205,145.507812,19.042969,25.878906,96.679688,104.492188,0.805462
206,445.800781,20.507812,22.460938,74.218750,124.511719,0.809368
207,250.000000,27.832031,27.832031,24.414062,8.300781,0.813275
208,-212.402344,36.132812,34.179688,13.671875,-26.367188,0.817181
209,-319.824219,33.691406,34.667969,56.152344,3.906250,0.821087
210,79.589844,15.136719,28.808594,98.144531,57.617188,0.824993
211,426.269531,11.230469,22.460938,77.636719,83.007812,0.828900
212,286.132812,28.808594,23.437500,17.089844,-14.160156,0.832806
213,-175.781250,43.945312,32.714844,-6.347656,-108.886719,0.836712
214,-338.867188,40.527344,36.621094,31.250000,-28.808594,0.840618
215,17.578125,20.996094,28.320312,76.171875,112.304688,0.844525
216,397.949219,13.183594,20.019531,65.429688,93.750000,0.840028
217,320.800781,21.484375,23.925781,18.066406,-11.718750,0.843934
218,-137.207031,31.250000,35.156250,-4.882812,-71.777344,0.847840
219,-369.628906,37.109375,36.132812,23.437500,13.183594,0.851747
220,-62.988281,28.808594,29.785156,78.125000,126.953125,0.855653
221,360.839844,17.089844,25.390625,83.496094,114.257812,0.859559
222,354.492188,17.578125,28.320312,31.250000,30.761719,0.863465
223,-87.890625,28.808594,38.574219,1.464844,-20.996094,0.867372
224,-365.234375,36.132812,44.433594,29.296875,-29.785156,0.871278
225,-111.816406,24.902344,34.667969,80.566406,36.132812,0.875184
226,332.031250,15.625000,21.972656,90.332031,91.796875,0.879090
227,386.718750,24.902344,20.019531,40.039062,41.015625,0.882997
228,-25.878906,33.203125,29.785156,-6.835938,-67.382812,0.900181
229,-355.957031,28.320312,38.085938,14.160156,-69.335938,0.904088
230,-157.714844,25.878906,35.644531,76.171875,51.269531,0.907994
231,317.871094,24.414062,22.949219,101.562500,80.566406,0.911900
232,445.800781,18.066406,18.066406,74.707031,24.902344,0.915806
233,60.058594,25.390625,35.156250,25.390625,-60.546875,0.919713
234,-332.519531,37.597656,45.898438,15.625000,-59.082031,0.923619
235,-217.773438,26.855469,38.574219,66.894531,44.921875,0.927525
236,245.117188,11.230469,27.832031,85.449219,111.328125,0.931431
237,417.968750,13.183594,22.949219,37.597656,85.937500,0.935338
238,91.796875,28.808594,34.179688,-6.347656,-41.503906,0.939244
239,-306.152344,40.527344,40.527344,-1.464844,-73.242188,0.943150
240,-255.859375,37.109375,35.156250,46.386719,43.457031,0.940281
241,202.148438,22.949219,23.437500,80.078125,126.464844,0.944188
242,443.847656,16.113281,17.089844,52.246094,115.234375,0.948094
243,167.968750,27.343750,24.414062,-0.976562,1.953125,0.952000
244,-272.460938,35.644531,31.738281,-10.253906,-50.292969,0.955906
245,-291.015625,30.273438,33.203125,42.968750,10.253906,0.959813
246,155.273438,22.949219,27.343750,84.472656,68.847656,0.963719
247,442.382812,27.343750,25.390625,57.128906,49.804688,0.967625
248,213.378906,36.132812,31.738281,6.347656,-41.015625,0.971531
249,-241.699219,40.039062,36.621094,-7.324219,-82.031250,0.975438
250,-317.382812,38.085938,34.179688,39.062500,-3.906250,0.979344
251,87.890625,23.925781,24.414062,80.566406,77.148438,0.983250
252,417.968750,13.671875,19.042969,59.082031,56.640625,0.981879
253,260.742188,21.484375,24.414062,3.906250,-33.691406,0.985785
254,-207.519531,38.085938,35.644531,-11.718750,-56.640625,0.989691
255,-348.632812,41.015625,34.179688,30.273438,-6.835938,0.993597
256,28.320312,29.785156,27.343750,78.125000,108.398438,0.997504
257,405.761719,19.042969,23.925781,73.730469,104.980469,1.001410
258,310.058594,21.484375,25.390625,20.507812,7.324219,1.005316
259,-156.738281,35.156250,35.156250,-6.347656,-0.488281,1.009222
260,-363.281250,35.156250,41.015625,31.738281,12.207031,1.013129
261,-40.039062,18.554688,34.179688,82.519531,95.214844,1.017035
262,366.210938,18.554688,23.437500,76.171875,131.347656,1.020941
263,341.796875,24.414062,23.437500,22.949219,68.847656,1.024847
264,-103.027344,28.320312,35.156250,-10.742188,-20.996094,1.040296
265,-368.652344,41.992188,36.132812,13.671875,3.906250,1.044203
266,-96.679688,39.062500,29.785156,73.730469,82.031250,1.048109
267,341.308594,24.414062,21.484375,77.148438,100.097656,1.052015
268,371.582031,20.507812,24.902344,20.996094,-9.765625,1.055921
269,-51.269531,17.578125,40.527344,-7.324219,-123.046875,1.059828
270,-365.234375,27.832031,43.457031,14.648438,-45.898438,1.063734
271,-167.968750,36.621094,38.085938,62.500000,41.503906,1.067640
272,289.550781,-2.441406,32.714844,77.148438,41.503906,1.071546
273,381.347656,-12.695312,30.273438,30.273438,10.742188,1.075453
274,-18.554688,44.433594,34.179688,-16.601562,-68.847656,1.079359
275,-371.093750,60.058594,41.015625,-0.976562,-67.871094,1.083265
276,-219.238281,37.597656,38.574219,56.152344,37.109375,1.080220
277,253.417969,28.808594,34.179688,84.472656,85.449219,1.084126
278,412.109375,30.273438,32.226562,44.921875,58.593750,1.088032
279,74.218750,41.503906,36.132812,0.488281,-31.250000,1.091938
280,-319.335938,47.851562,43.945312,7.812500,-57.128906,1.095845
281,-248.046875,33.691406,42.968750,60.546875,19.042969,1.099751
282,226.074219,7.324219,35.156250,90.820312,76.171875,1.103657
283,432.617188,2.441406,26.367188,46.386719,64.453125,1.107563
284,117.187500,37.109375,32.714844,-5.859375,-88.867188,1.111470
285,-302.734375,58.105469,43.457031,-3.906250,-152.832031,1.115376
286,-283.691406,47.851562,41.992188,41.992188,-23.437500,1.119282
287,164.062500,29.785156,32.714844,77.636719,83.984375,1.123188
288,428.222656,24.414062,25.390625,51.757812,59.082031,1.121891
289,188.476562,31.738281,31.738281,4.882812,-51.757812,1.125798
290,-261.230469,28.320312,43.945312,1.464844,-88.867188,1.129704
291,-320.800781,32.226562,40.039062,39.550781,0.000000,1.133610
292,96.191406,47.851562,28.808594,80.566406,101.562500,1.137516
293,409.179688,47.363281,26.367188,62.011719,62.500000,1.141423
294,231.933594,40.039062,30.273438,9.765625,-39.062500,1.145329
295,-226.562500,43.945312,36.621094,-2.929688,-114.746094,1.149235
296,-346.191406,45.898438,41.015625,35.644531,-34.179688,1.153141
297,40.039062,28.320312,34.667969,83.007812,119.628906,1.157048
298,398.437500,21.972656,23.437500,70.312500,112.304688,1.160954
299,289.062500,30.761719,24.902344,16.113281,-5.371094,1.164860
300,-171.875000,36.621094,37.109375,-4.882812,-65.917969,1.180657
301,-366.210938,41.992188,39.550781,28.808594,23.925781,1.184564
302,-24.902344,44.433594,34.667969,78.613281,114.257812,1.188470
303,371.093750,34.179688,27.832031,69.335938,136.230469,1.192376
304,316.894531,28.320312,25.390625,14.648438,53.710938,1.196282
305,-130.859375,44.433594,34.179688,-12.695312,-48.828125,1.200189
306,-376.953125,43.457031,39.062500,12.207031,-13.671875,1.204095
307,-95.703125,23.925781,31.738281,62.988281,79.589844,1.208001
308,335.937500,20.996094,22.949219,64.453125,108.886719,1.211907
309,354.003906,35.644531,26.367188,15.625000,-16.601562,1.215814
310,-75.195312,41.992188,34.179688,-15.136719,-82.519531,1.219720
311,-363.769531,36.621094,35.644531,10.253906,-9.277344,1.223626
312,-135.253906,39.550781,32.714844,66.406250,77.636719,1.220198
313,309.082031,36.132812,20.507812,64.941406,118.652344,1.224104
314,389.160156,31.250000,16.113281,17.089844,60.058594,1.228010
315,-12.207031,36.621094,25.390625,-19.042969,-30.273438,1.231916
316,-356.933594,42.968750,35.156250,-9.277344,-37.597656,1.235823
317,-190.429688,44.433594,32.226562,47.851562,51.269531,1.239729
318,272.949219,29.785156,19.042969,62.500000,103.027344,1.243635
319,409.667969,11.718750,19.042969,16.601562,35.156250,1.247541
320,48.828125,28.808594,26.855469,-21.972656,-58.593750,1.251448
321,-333.984375,52.246094,31.250000,-7.812500,-62.011719,1.255354
322,-241.210938,41.015625,34.667969,44.921875,43.457031,1.259260
323,223.632812,23.437500,27.343750,70.312500,98.632812,1.263166
324,424.316406,30.273438,17.089844,34.667969,61.035156,1.262151
325,111.328125,48.339844,23.437500,-11.718750,-33.691406,1.266057
326,-300.781250,50.781250,31.738281,-14.160156,-63.476562,1.269964
327,-278.808594,37.109375,33.203125,37.109375,-9.765625,1.273870
328,170.410156,18.554688,26.367188,74.218750,42.968750,1.277776
329,431.152344,8.789062,22.460938,49.804688,39.550781,1.281682
330,175.781250,21.484375,26.367188,-0.488281,-62.988281,1.285589
331,-265.136719,49.316406,33.691406,-8.300781,-93.261719,1.289495
332,-312.988281,44.921875,34.667969,31.250000,9.765625,1.293401
333,110.351562,21.972656,22.460938,62.500000,108.398438,1.297307
334,420.410156,20.507812,16.601562,44.433594,94.238281,1.301214
335,223.632812,29.785156,22.460938,-9.277344,36.621094,1.305120
336,-239.746094,40.039062,30.761719,-24.414062,-14.160156,1.320531
337,-345.214844,33.691406,33.691406,18.554688,22.949219,1.324437
338,54.687500,15.625000,25.878906,60.546875,132.812500,1.328343
339,400.390625,19.042969,18.066406,46.386719,106.445312,1.332249
340,261.718750,31.250000,22.949219,-2.929688,3.417969,1.336156
341,-200.195312,41.992188,36.621094,-18.554688,-49.316406,1.340062
342,-364.257812,42.480469,38.085938,20.996094,16.113281,1.343968
343,-3.906250,29.785156,25.878906,66.406250,105.468750,1.347874
344,381.347656,19.042969,19.531250,56.640625,98.144531,1.351781
345,312.500000,22.949219,23.437500,12.695312,11.230469,1.355687
346,-142.578125,46.875000,35.644531,-12.695312,-88.867188,1.359593
347,-369.628906,41.992188,38.574219,12.695312,-10.253906,1.363499
348,-61.035156,21.972656,30.273438,63.476562,151.855469,1.360166
349,359.375000,25.878906,26.367188,72.753906,144.531250,1.364072
350,345.703125,27.343750,26.855469,26.855469,25.878906,1.367978
351,-100.585938,25.878906,31.738281,-10.742188,-72.753906,1.371884
352,-375.488281,33.203125,35.644531,17.089844,-65.917969,1.375791
353,-124.023438,34.179688,34.179688,73.730469,58.593750,1.379697
354,312.500000,27.832031,29.785156,78.613281,130.859375,1.383603
355,366.210938,20.996094,25.390625,30.273438,90.332031,1.387509
356,-47.363281,32.226562,31.250000,-5.371094,-10.253906,1.391416
357,-374.511719,41.503906,41.503906,17.089844,-10.742188,1.395322
358,-186.035156,26.367188,37.597656,65.917969,98.144531,1.399228
359,273.437500,15.625000,27.343750,79.101562,112.304688,1.403134
360,397.949219,11.718750,30.761719,42.480469,57.128906,1.420148
361,28.320312,18.554688,38.574219,0.488281,-48.828125,1.424054
362,-346.191406,32.714844,40.527344,5.859375,-31.738281,1.427960
363,-225.097656,34.667969,34.179688,55.175781,89.843750,1.431866
364,251.953125,28.808594,29.296875,83.007812,95.214844,1.435773
365,433.105469,27.343750,28.320312,53.710938,49.316406,1.439679
366,95.214844,38.574219,21.972656,-2.441406,-31.738281,1.443585
367,-310.546875,46.875000,27.832031,-2.441406,-47.851562,1.447491
368,-261.230469,39.550781,28.808594,50.292969,35.156250,1.451398
369,199.218750,29.785156,19.531250,81.054688,104.492188,1.455304
370,437.988281,22.460938,16.601562,52.734375,67.382812,1.459210
371,166.015625,28.320312,29.785156,13.183594,-66.406250,1.463116
372,-264.160156,36.621094,41.015625,21.484375,-96.191406,1.460245
373,-289.550781,33.203125,36.132812,54.687500,14.160156,1.464151
374,146.972656,31.250000,24.414062,85.449219,95.703125,1.468057
375,436.523438,29.785156,19.531250,69.335938,73.242188,1.471963
376,208.007812,33.691406,25.878906,10.253906,-57.128906,1.475870
377,-250.000000,40.039062,35.156250,-5.371094,-110.351562,1.479776
378,-333.007812,36.621094,38.085938,34.667969,27.343750,1.483682
379,74.707031,21.972656,28.320312,72.265625,125.976562,1.487588
380,407.714844,16.113281,22.460938,57.617188,76.171875,1.491495
381,245.117188,22.460938,25.878906,3.417969,-34.179688,1.495401
382,-211.914062,32.714844,34.179688,-12.695312,-83.496094,1.499307
383,-352.539062,33.691406,35.156250,25.878906,-19.042969,1.503213
384,21.972656,22.460938,24.414062,69.824219,94.238281,1.502090
385,400.878906,15.136719,18.554688,63.476562,106.933594,1.505996
386,304.687500,25.390625,20.019531,10.742188,21.972656,1.509902
387,-158.203125,43.457031,26.855469,-14.160156,-43.945312,1.513808
388,-355.957031,52.734375,35.644531,21.484375,12.695312,1.517715
389,-21.972656,44.433594,28.808594,74.707031,134.765625,1.521621
390,385.253906,24.414062,12.207031,74.707031,91.796875,1.525527
391,358.398438,20.019531,15.136719,23.925781,-46.386719,1.529433
392,-90.332031,30.273438,30.273438,-2.441406,-100.097656,1.533340
393,-352.050781,37.109375,34.667969,25.878906,-19.042969,1.537246
394,-76.660156,28.808594,26.855469,70.312500,94.726562,1.541152
395,362.304688,26.367188,20.019531,79.101562,102.539062,1.545058
396,394.042969,32.714844,24.902344,31.738281,26.855469,1.560315
397,-26.367188,44.433594,35.644531,-2.441406,-69.335938,1.564221
398,-333.007812,48.339844,39.062500,18.554688,-55.175781,1.568128
399,-129.882812,37.109375,34.667969,66.894531,37.109375,1.572034
400,319.824219,23.925781,24.902344,81.542969,83.007812,1.575940
401,415.527344,23.437500,23.925781,36.621094,39.550781,1.579846
402,23.437500,30.761719,33.203125,-8.789062,-30.273438,1.583753
403,-333.496094,34.179688,41.992188,0.976562,-21.484375,1.587659
404,-190.429688,36.621094,37.597656,49.804688,87.890625,1.591565
405,271.972656,34.179688,21.484375,69.335938,124.023438,1.595471
406,426.269531,30.761719,19.042969,33.203125,57.617188,1.599378
407,79.101562,37.109375,29.785156,-6.347656,1.953125,1.603284
408,-318.847656,41.992188,33.203125,1.464844,-6.347656,1.600088
409,-245.117188,33.203125,31.738281,52.246094,47.851562,1.603994
410,217.285156,20.507812,25.390625,81.542969,95.703125,1.607900
411,425.292969,16.601562,22.460938,50.292969,55.175781,1.611806
412,128.906250,27.343750,33.203125,1.953125,-29.785156,1.615713
413,-290.039062,43.945312,38.085938,-0.488281,-16.601562,1.619619
414,-283.691406,39.550781,32.714844,44.921875,56.640625,1.623525
415,167.480469,19.531250,24.414062,79.101562,114.746094,1.627431
416,432.128906,11.230469,21.972656,51.757812,57.617188,1.631338
417,184.082031,21.972656,29.785156,-3.906250,-21.484375,1.635244
418,-262.695312,36.132812,38.085938,-13.183594,-56.152344,1.639150
419,-325.683594,35.156250,37.597656,32.226562,-22.949219,1.643056
420,91.796875,20.996094,29.785156,71.777344,81.542969,1.639836
421,410.156250,16.601562,25.878906,53.222656,104.492188,1.643743
422,226.074219,30.273438,27.343750,-3.417969,21.972656,1.647649
423,-239.746094,40.039062,32.226562,-25.390625,-38.085938,1.651555
424,-372.070312,29.785156,32.226562,14.160156,51.757812,1.655461
425,12.695312,14.648438,24.902344,62.011719,163.085938,1.659368
426,377.441406,7.324219,19.531250,46.386719,121.582031,1.663274
427,259.765625,4.882812,21.972656,-10.253906,-15.625000,1.667180
428,-203.125000,30.273438,33.691406,-29.785156,-91.308594,1.671086
429,-374.511719,47.363281,36.621094,7.812500,-4.394531,1.674993
430,-20.996094,38.085938,19.042969,63.964844,90.820312,1.678899
431,391.113281,34.667969,6.835938,76.171875,96.679688,1.682805
432,342.285156,32.714844,18.554688,28.320312,16.113281,1.699800
433,-128.906250,35.644531,39.550781,-6.347656,-97.656250,1.703707
434,-377.929688,31.738281,43.457031,17.578125,-64.453125,1.707613
435,-83.984375,16.113281,39.062500,70.800781,54.687500,1.711519
436,345.214844,6.835938,37.597656,80.078125,81.542969,1.715425
437,359.375000,8.789062,40.039062,36.621094,26.855469,1.719332
438,-78.613281,20.507812,52.734375,5.859375,-44.433594,1.723238
439,-382.324219,17.089844,62.500000,24.414062,-37.597656,1.727144
440,-145.019531,2.441406,57.128906,77.636719,51.269531,1.731050
441,306.152344,-4.882812,47.851562,88.867188,84.960938,1.734957
442,374.511719,-0.488281,48.339844,40.527344,64.941406,1.738863
443,-42.968750,20.996094,56.152344,-6.347656,-33.691406,1.742769
444,-387.695312,33.691406,55.175781,10.253906,-44.921875,1.742388
445,-212.890625,25.878906,46.386719,64.941406,72.265625,1.746295
446,250.976562,15.625000,36.132812,76.660156,118.652344,1.750201
447,389.648438,15.136719,31.250000,31.738281,52.246094,1.754107
448,31.738281,25.878906,39.550781,-13.183594,-59.082031,1.758013
449,-338.867188,29.296875,52.246094,-2.441406,-87.402344,1.761920
450,-234.863281,14.648438,47.363281,51.757812,-1.464844,1.765826
451,228.027344,7.324219,32.226562,73.730469,75.195312,1.769732
452,416.992188,14.648438,28.320312,31.250000,63.476562,1.773638
453,95.214844,30.273438,32.714844,-17.089844,-16.113281,1.777545
454,-310.058594,37.597656,40.039062,-14.648438,-54.687500,1.781451
455,-273.925781,26.367188,41.992188,41.992188,41.015625,1.785357
456,174.804688,17.089844,33.203125,77.148438,118.164062,1.780131
457,423.828125,11.230469,25.878906,45.898438,59.570312,1.784037
458,165.527344,20.019531,28.808594,-1.953125,-43.945312,1.787943
459,-268.554688,31.250000,37.597656,0.000000,-90.332031,1.791849
460,-303.222656,25.390625,40.039062,51.757812,-0.488281,1.795756
461,123.535156,20.996094,30.761719,92.285156,110.839844,1.799662
462,423.828125,11.230469,25.390625,75.683594,83.007812,1.803568
463,227.539062,18.554688,35.644531,24.902344,-46.875000,1.807474
464,-224.121094,42.480469,49.316406,14.160156,-121.093750,1.811381
465,-323.730469,37.109375,47.363281,52.734375,-46.386719,1.815287
466,76.171875,20.996094,38.574219,89.355469,99.121094,1.819193
467,413.574219,13.671875,32.714844,65.429688,130.371094,1.823099
468,270.507812,24.414062,33.691406,5.371094,0.976562,1.840408
469,-191.894531,41.015625,43.457031,-21.484375,-62.988281,1.844314
470,-358.398438,38.085938,43.457031,0.488281,16.113281,1.848220
471,-1.464844,23.925781,29.785156,46.875000,104.003906,1.852127
472,381.347656,21.484375,18.554688,39.550781,85.937500,1.856033
473,304.199219,28.808594,21.484375,-13.183594,-0.488281,1.859939
474,-156.250000,34.667969,33.203125,-35.156250,-29.785156,1.863845
475,-376.953125,36.132812,35.156250,-1.464844,-25.878906,1.867752
476,-69.335938,34.667969,31.250000,54.199219,93.261719,1.871658
477,348.632812,28.808594,25.390625,62.500000,148.437500,1.875564
478,337.890625,20.996094,24.902344,19.042969,38.574219,1.879470
479,-106.933594,24.414062,37.109375,-7.324219,-30.273438,1.883377
480,-380.859375,28.320312,41.503906,23.437500,-19.042969,1.879869
481,-122.558594,23.925781,35.644531,79.101562,61.523438,1.883775
482,324.218750,13.183594,30.761719,94.238281,104.980469,1.887682
483,375.000000,9.765625,29.785156,50.292969,30.761719,1.891588
484,-41.992188,29.296875,38.574219,9.765625,-38.574219,1.895494
485,-363.281250,41.015625,48.828125,33.691406,-30.273438,1.899400
486,-168.945312,31.250000,46.875000,92.285156,63.476562,1.903307
487,296.875000,11.230469,37.597656,104.980469,105.957031,1.907213
488,414.062500,3.906250,35.644531,62.500000,44.921875,1.911119
489,29.785156,26.367188,39.550781,6.835938,-47.851562,1.915025
490,-332.031250,40.527344,41.015625,12.207031,-60.058594,1.918932
491,-203.613281,37.597656,31.250000,56.152344,43.945312,1.922838
492,259.765625,28.320312,20.996094,68.359375,128.417969,1.922298
493,428.710938,24.414062,16.113281,38.085938,70.312500,1.926204
494,85.449219,37.597656,18.066406,-14.648438,-34.179688,1.930111
495,-317.871094,47.363281,26.367188,-11.718750,-25.878906,1.934017
496,-255.859375,41.503906,26.367188,45.410156,39.550781,1.937923
497,202.148438,27.343750,19.042969,74.707031,96.191406,1.941829
498,426.757812,17.578125,16.601562,46.875000,84.472656,1.945736
499,146.972656,26.855469,23.437500,-4.394531,-25.878906,1.949642
500,-276.367188,41.015625,33.203125,-9.277344,-68.359375,1.953548
501,-294.921875,37.597656,29.296875,36.621094,16.601562,1.957454
502,142.578125,21.972656,21.972656,70.312500,87.402344,1.961361
503,418.457031,10.742188,21.972656,50.781250,87.402344,1.965267
504,195.312500,26.855469,28.320312,-1.464844,-20.996094,1.984642
505,-254.394531,41.015625,36.132812,-14.648438,-49.804688,1.988548
506,-344.238281,31.250000,39.062500,31.738281,58.593750,1.992454
507,73.730469,21.484375,30.761719,73.730469,100.585938,1.996360
508,404.296875,4.394531,18.554688,51.757812,94.238281,2.000267
509,239.257812,5.859375,23.925781,0.488281,62.011719,2.004173
510,-214.843750,36.621094,35.156250,-13.183594,-19.042969,2.008079
511,-349.609375,47.363281,38.574219,24.902344,7.324219,2.011985
512,27.832031,33.203125,30.273438,68.847656,138.183594,2.015892
513,407.714844,23.925781,23.925781,57.128906,134.765625,2.019798
514,310.058594,29.785156,25.390625,1.953125,-17.089844,2.023704
515,-154.785156,44.433594,30.761719,-15.625000,-115.722656,2.027610
516,-350.585938,46.875000,32.226562,21.484375,-43.945312,2.019836
517,-14.648438,32.226562,24.414062,68.847656,62.011719,2.023742
518,384.277344,24.414062,19.042969,67.382812,100.097656,2.027648
519,343.750000,26.855469,22.949219,14.160156,10.742188,2.031554
520,-99.609375,27.343750,34.667969,-15.625000,-71.777344,2.035461
521,-358.886719,30.761719,40.527344,17.578125,-12.207031,2.039367
522,-93.261719,32.226562,35.644531,70.312500,53.710938,2.043273
523,333.984375,21.972656,27.343750,73.730469,91.796875,2.047179
524,356.933594,22.949219,20.507812,23.437500,33.691406,2.051086
525,-66.894531,39.550781,31.738281,-6.835938,-68.847656,2.054992
526,-373.046875,39.550781,42.968750,20.019531,-52.246094,2.058898
527,-159.179688,26.855469,39.550781,71.289062,75.683594,2.062804
528,296.386719,9.277344,29.296875,83.007812,109.863281,2.059959
529,382.812500,4.394531,23.925781,35.644531,42.968750,2.063865
530,-6.347656,29.296875,33.203125,-3.906250,-27.343750,2.067771
531,-354.980469,40.527344,42.480469,8.300781,-15.136719,2.071677
532,-209.472656,32.226562,37.597656,56.152344,70.800781,2.075584
533,256.835938,26.367188,26.367188,73.730469,112.304688,2.079490
534,408.691406,23.925781,20.019531,23.437500,71.777344,2.083396
535,53.710938,34.179688,24.414062,-30.761719,-26.367188,2.087302
536,-322.265625,42.968750,33.203125,-20.019531,-79.589844,2.091209
537,-236.816406,31.738281,26.367188,29.296875,20.019531,2.095115
538,218.750000,16.113281,14.160156,48.828125,107.910156,2.099021
539,427.246094,18.554688,13.183594,12.207031,56.152344,2.102927
540,121.582031,30.761719,24.902344,-31.250000,-21.484375,2.119817
541,-298.339844,42.480469,35.644531,-21.972656,-54.687500,2.123723
542,-280.761719,35.644531,32.714844,29.785156,26.367188,2.127630
543,171.875000,21.484375,23.437500,65.917969,132.812500,2.131536
544,427.734375,19.531250,18.554688,40.039062,122.070312,2.135442
545,176.757812,30.761719,22.460938,-9.765625,-8.300781,2.139348
546,-265.625000,43.945312,33.203125,-9.765625,-96.191406,2.143255
547,-316.894531,36.132812,34.179688,33.691406,-11.230469,2.147161
548,108.886719,17.578125,25.390625,70.800781,104.980469,2.151067
549,414.550781,16.601562,21.972656,52.246094,103.515625,2.154973
550,226.562500,25.390625,26.367188,-1.953125,-24.414062,2.158880
551,-238.281250,28.808594,33.203125,-14.648438,-84.472656,2.162786
552,-356.445312,30.273438,36.132812,29.296875,-5.371094,2.159793
553,42.480469,32.226562,30.273438,78.125000,85.449219,2.163699
554,390.625000,27.343750,24.414062,62.988281,89.355469,2.167606
555,261.718750,27.343750,27.832031,5.859375,-26.367188,2.171512
556,-200.195312,34.179688,35.156250,-12.695312,-113.281250,2.175418
557,-370.117188,38.085938,41.015625,26.367188,-61.523438,2.179324
558,-18.554688,24.414062,35.156250,75.195312,49.316406,2.183231
559,375.000000,15.136719,22.949219,65.917969,67.382812,2.187137
560,312.988281,28.320312,21.972656,11.718750,-19.042969,2.191043
561,-140.136719,41.503906,35.644531,-11.718750,-114.746094,2.194949
562,-363.281250,37.109375,40.527344,19.531250,-86.914062,2.198856
563,-69.335938,22.460938,29.296875,65.429688,34.179688,2.202762
564,355.468750,9.277344,23.437500,63.476562,79.589844,2.201420
565,364.746094,14.648438,24.902344,16.113281,-16.113281,2.205326
566,-74.707031,40.527344,27.343750,-16.113281,-105.957031,2.209233
567,-362.792969,49.316406,32.226562,3.906250,-52.246094,2.213139
568,-114.257812,32.714844,31.250000,62.011719,80.078125,2.217045
569,331.542969,20.996094,21.972656,73.730469,95.703125,2.220951
570,389.648438,22.949219,21.484375,26.367188,0.000000,2.224858
571,-18.066406,33.691406,30.273438,-12.207031,-51.269531,2.228764
572,-353.027344,40.527344,37.109375,4.394531,-54.199219,2.232670
573,-180.664062,28.320312,32.226562,58.105469,43.945312,2.236576
574,282.226562,12.695312,20.996094,73.730469,98.632812,2.240483
575,406.250000,18.066406,20.996094,32.226562,21.484375,2.244389
576,29.296875,34.179688,28.808594,-14.648438,-39.062500,2.259866
577,-350.097656,41.015625,33.691406,-10.253906,-18.066406,2.263773
578,-239.257812,33.203125,30.273438,42.968750,55.175781,2.267679
579,228.515625,20.019531,21.484375,63.476562,107.910156,2.271585
580,408.691406,8.789062,18.066406,29.785156,58.105469,2.275491
581,82.519531,18.554688,21.972656,-19.042969,-52.246094,2.279398
582,-315.429688,41.992188,29.785156,-19.531250,-65.429688,2.283304
583,-270.019531,27.343750,29.785156,36.621094,27.343750,2.287210
584,177.246094,8.300781,22.949219,66.406250,102.539062,2.291116
585,422.363281,20.996094,19.042969,37.597656,66.406250,2.295023
586,157.714844,35.156250,23.437500,-0.976562,-41.992188,2.298929
587,-265.625000,41.503906,32.226562,8.789062,-71.289062,2.302835
588,-283.203125,34.667969,33.203125,63.964844,12.207031,2.300319
589,131.347656,21.972656,33.691406,88.378906,111.328125,2.304225
590,409.667969,13.671875,32.226562,58.105469,49.804688,2.308131
591,205.566406,20.996094,35.156250,12.207031,-87.402344,2.312038
592,-252.929688,29.785156,42.968750,0.488281,-117.187500,2.315944
593,-350.585938,24.414062,45.898438,41.015625,-70.800781,2.319850
594,56.152344,15.136719,39.062500,72.265625,1.953125,2.323756
595,395.996094,6.347656,34.179688,54.199219,46.386719,2.327663
596,248.535156,15.136719,39.062500,0.488281,-41.015625,2.331569
597,-213.867188,35.644531,55.664062,-13.671875,-148.925781,2.335475
598,-368.164062,33.691406,61.523438,27.832031,-93.261719,2.339381
599,-6.835938,10.742188,47.363281,64.941406,68.359375,2.343288
600,378.417969,0.976562,43.945312,61.523438,112.304688,2.340169
601,297.851562,6.835938,46.875000,17.578125,-10.253906,2.344076
602,-159.667969,19.531250,56.640625,-6.347656,-72.753906,2.347982
603,-376.464844,18.554688,64.941406,19.042969,14.160156,2.351888
604,-62.988281,8.789062,60.546875,70.312500,132.812500,2.355794
605,359.863281,11.718750,54.687500,81.542969,109.863281,2.359701
606,342.285156,12.695312,56.640625,37.597656,-3.417969,2.363607
607,-103.515625,19.531250,64.453125,15.625000,-64.941406,2.367513
608,-377.441406,30.761719,65.429688,45.410156,-17.089844,2.371419
609,-125.976562,22.460938,57.617188,93.261719,122.558594,2.375326
610,319.824219,13.183594,48.828125,99.121094,145.019531,2.379232
611,372.070312,13.671875,50.292969,56.152344,16.601562,2.383138
612,-57.128906,18.554688,55.664062,16.601562,-64.941406,2.400566
613,-380.371094,23.925781,59.570312,24.902344,-28.320312,2.404472
614,-175.292969,25.390625,57.128906,77.636719,49.316406,2.408378
615,285.644531,15.625000,44.921875,89.355469,94.726562,2.412284
616,390.136719,13.671875,37.109375,40.039062,37.597656,2.416191
617,5.859375,31.738281,47.851562,0.488281,-77.148438,2.420097
618,-360.839844,38.085938,56.152344,9.765625,-98.632812,2.424003
619,-226.562500,28.320312,45.898438,55.664062,17.089844,2.427909
620,253.906250,19.042969,33.691406,80.566406,110.351562,2.431816
621,420.898438,18.066406,33.691406,49.316406,49.804688,2.435722
622,74.707031,24.414062,41.015625,4.394531,-52.246094,2.439628
623,-312.011719,31.250000,45.898438,4.394531,-62.011719,2.443534
624,-241.699219,35.644531,41.503906,55.664062,22.460938,2.442316
625,221.191406,24.902344,32.714844,84.960938,111.816406,2.446223
626,446.289062,18.066406,27.832031,50.292969,72.753906,2.450129
627,158.691406,32.226562,32.714844,0.488281,-55.175781,2.454035
628,-270.019531,42.480469,41.503906,-5.371094,-76.171875,2.457941
629,-276.855469,37.109375,40.527344,41.503906,-17.578125,2.461848
630,168.457031,26.855469,30.273438,73.242188,61.523438,2.465754
631,442.871094,20.019531,21.484375,44.921875,76.171875,2.469660
632,200.683594,23.925781,29.296875,-4.882812,-22.460938,2.473566
633,-249.511719,31.738281,41.015625,-12.207031,-69.824219,2.477473
634,-313.964844,25.390625,38.574219,32.714844,37.597656,2.481379
635,95.703125,9.277344,31.250000,73.242188,159.179688,2.485285
636,409.179688,7.812500,30.273438,59.082031,97.656250,2.480080
637,235.839844,22.460938,36.621094,11.230469,-43.457031,2.483986
638,-226.562500,31.738281,46.875000,-3.906250,-63.476562,2.487892
639,-355.957031,25.390625,44.921875,34.179688,39.062500,2.491798
640,30.273438,13.671875,37.109375,84.472656,129.882812,2.495705
641,389.160156,2.441406,33.203125,81.542969,104.980469,2.499611
642,272.949219,15.625000,35.156250,26.855469,9.765625,2.503517
643,-184.082031,43.945312,48.339844,6.347656,-97.656250,2.507423
644,-368.652344,40.527344,49.316406,39.062500,-51.757812,2.511330
645,-34.179688,17.578125,33.203125,75.683594,115.234375,2.515236
646,371.093750,11.230469,25.390625,73.730469,115.722656,2.519142
647,331.542969,19.042969,28.320312,26.367188,20.019531,2.523048
648,-118.652344,31.250000,37.109375,-1.953125,-46.386719,2.540063
649,-357.910156,37.109375,42.968750,27.343750,-47.851562,2.543969
650,-64.941406,29.785156,37.597656,79.589844,20.019531,2.547876
651,367.187500,18.554688,26.855469,81.542969,70.800781,2.551782
652,382.812500,12.207031,20.996094,27.832031,3.417969,2.555688
653,-49.804688,27.832031,27.343750,-5.371094,-95.214844,2.559594
654,-349.609375,36.621094,31.738281,17.578125,-50.292969,2.563501
655,-124.023438,29.296875,26.367188,69.824219,62.500000,2.567407
656,322.265625,27.832031,18.554688,81.542969,76.660156,2.571313
657,393.066406,25.390625,22.949219,37.109375,23.925781,2.575219
658,5.859375,31.250000,38.574219,19.042969,-77.148438,2.579126
659,-325.195312,33.691406,45.410156,46.386719,-62.988281,2.583032
660,-185.546875,31.738281,35.156250,78.613281,97.167969,2.580282
661,261.718750,26.367188,23.437500,75.683594,124.023438,2.584188
662,401.855469,19.042969,20.996094,35.644531,22.460938,2.588095
663,35.644531,30.761719,24.902344,-7.812500,-88.378906,2.592001
664,-349.609375,42.968750,33.691406,-11.718750,-60.546875,2.595907
665,-256.835938,34.667969,34.667969,34.179688,45.410156,2.599813
666,199.707031,15.136719,19.531250,59.082031,66.406250,2.603720
667,398.925781,6.347656,10.742188,27.832031,43.945312,2.607626
668,91.796875,25.390625,17.578125,-14.648438,-41.015625,2.611532
669,-315.429688,38.085938,27.343750,-11.230469,-62.500000,2.615438
670,-280.273438,30.273438,26.855469,35.644531,38.085938,2.619345
671,175.781250,20.507812,21.484375,74.707031,106.933594,2.623251
672,430.664062,15.625000,20.507812,48.339844,54.199219,2.621950
673,176.269531,26.367188,25.390625,-6.347656,-15.625000,2.625857
674,-260.742188,35.644531,30.761719,-9.277344,-25.878906,2.629763
675,-297.851562,29.785156,25.878906,31.738281,18.554688,2.633669
676,129.394531,23.437500,16.601562,69.824219,121.582031,2.637575
677,428.710938,20.019531,12.207031,49.804688,108.886719,2.641482
678,228.515625,23.925781,14.648438,-8.300781,-14.648438,2.645388
679,-228.515625,33.691406,26.855469,-20.507812,-76.660156,2.649294
680,-336.425781,29.785156,32.714844,22.949219,-0.976562,2.653200
681,60.546875,17.578125,21.484375,69.824219,142.089844,2.657107
682,410.156250,20.996094,13.671875,58.105469,141.601562,2.661013
683,270.019531,32.714844,17.089844,5.371094,5.859375,2.664919
684,-188.964844,33.691406,28.320312,-13.183594,-83.496094,2.682444
685,-352.050781,28.320312,36.621094,23.437500,-35.644531,2.686350
686,-2.441406,25.878906,26.367188,73.730469,45.898438,2.690256
687,379.882812,21.972656,16.113281,71.289062,62.011719,2.694163
688,305.175781,22.949219,21.484375,18.554688,8.300781,2.698069
689,-151.855469,35.644531,31.250000,-6.347656,-45.898438,2.701975
690,-375.976562,36.621094,31.738281,20.996094,9.277344,2.705881
691,-72.265625,19.531250,24.902344,63.964844,116.210938,2.709788
692,344.726562,13.183594,19.531250,66.894531,108.886719,2.713694
693,335.449219,25.878906,22.460938,19.531250,-3.417969,2.717600
694,-104.492188,42.480469,31.738281,-13.183594,-67.382812,2.721506
695,-375.976562,47.363281,34.667969,8.300781,-58.105469,2.725413
696,-125.000000,35.644531,30.273438,66.406250,-16.601562,2.719853
697,313.964844,19.042969,17.578125,77.636719,43.945312,2.723759
698,372.070312,19.531250,13.671875,27.832031,-7.812500,2.727665
699,-36.621094,32.714844,25.390625,-6.835938,-80.566406,2.731572
700,-358.398438,37.597656,34.179688,9.765625,-46.386719,2.735478
701,-168.457031,33.203125,34.179688,68.359375,52.734375,2.739384
702,290.527344,26.367188,26.367188,93.750000,86.914062,2.743290
703,401.855469,17.578125,23.437500,47.363281,30.273438,2.747197
704,21.484375,22.949219,30.273438,-3.417969,-37.109375,2.751103
705,-337.890625,28.320312,36.132812,2.441406,-62.011719,2.755009
706,-218.750000,23.925781,32.226562,49.804688,-5.371094,2.758915
707,237.304688,22.460938,22.949219,74.218750,47.851562,2.762822
708,419.921875,26.367188,23.437500,42.480469,-11.718750,2.760207
709,86.425781,33.203125,34.179688,-5.371094,-62.011719,2.764113
710,-325.195312,32.226562,39.062500,-7.812500,-55.175781,2.768020
711,-271.484375,24.414062,34.179688,44.433594,15.136719,2.771926
712,184.570312,17.578125,27.832031,80.566406,74.707031,2.775832
713,422.363281,17.089844,26.855469,52.734375,34.667969,2.779738
714,141.113281,24.902344,32.226562,2.441406,-59.570312,2.783645
715,-295.410156,33.691406,40.039062,-2.441406,-134.277344,2.787551
716,-306.640625,28.808594,38.574219,41.992188,-62.988281,2.791457
717,133.300781,17.578125,25.390625,75.683594,56.640625,2.795363
718,417.968750,13.183594,17.578125,50.781250,14.160156,2.799270
719,191.406250,21.484375,25.390625,-3.417969,-85.449219,2.803176
720,-257.324219,32.226562,37.109375,-17.089844,-92.773438,2.820377
721,-330.566406,23.437500,34.667969,28.808594,-22.949219,2.824283
722,80.566406,12.207031,25.390625,75.195312,46.386719,2.828190
723,410.644531,15.625000,20.507812,56.640625,51.269531,2.832096
724,251.464844,20.019531,23.437500,5.371094,-72.753906,2.836002
725,-207.031250,26.367188,30.273438,-6.347656,-112.792969,2.839908
726,-345.214844,25.390625,36.621094,34.667969,16.601562,2.843815
727,20.019531,15.136719,30.273438,86.425781,149.902344,2.847721
728,394.531250,6.347656,24.414062,80.078125,123.535156,2.851627
729,310.058594,13.671875,29.296875,33.203125,29.785156,2.855533
730,-142.089844,36.132812,34.667969,7.812500,-27.343750,2.859440
731,-351.562500,40.527344,32.714844,23.437500,7.324219,2.863346
732,-40.527344,27.343750,19.042969,61.523438,101.562500,2.861663
733,367.675781,17.578125,11.718750,57.617188,74.707031,2.865570
734,332.519531,24.902344,16.601562,8.300781,7.324219,2.869476
735,-122.070312,42.480469,27.343750,-20.996094,-32.714844,2.873382
736,-370.605469,45.410156,32.226562,5.371094,-14.648438,2.877288
737,-93.750000,33.691406,24.414062,59.570312,119.140625,2.881195
738,338.378906,21.484375,15.625000,65.429688,138.671875,2.885101
739,365.234375,25.390625,16.113281,13.183594,12.207031,2.889007
740,-62.500000,29.296875,23.437500,-23.925781,-45.410156,2.892913
741,-370.605469,30.273438,27.343750,0.000000,-36.621094,2.896820
742,-163.574219,34.667969,24.414062,56.640625,86.914062,2.900726
743,299.316406,28.320312,18.554688,74.707031,172.363281,2.904632
744,395.507812,25.878906,17.578125,32.714844,84.472656,2.920014
745,-7.324219,36.621094,23.925781,-12.695312,-11.230469,2.923920
746,-359.863281,40.039062,29.785156,1.464844,-8.789062,2.927826
747,-205.566406,29.785156,27.343750,58.593750,103.027344,2.931733
748,262.695312,20.019531,18.066406,79.589844,166.503906,2.935639
749,408.203125,16.601562,17.578125,42.480469,67.382812,2.939545
750,47.851562,29.296875,28.320312,-9.277344,-40.039062,2.943451
751,-336.914062,34.667969,36.621094,-1.464844,-44.921875,2.947358
752,-250.488281,24.414062,34.179688,51.269531,40.039062,2.951264
753,214.843750,19.042969,21.484375,73.730469,137.695312,2.955170
754,429.199219,18.066406,13.671875,40.527344,75.195312,2.959076
755,131.347656,27.832031,21.484375,-3.906250,-42.480469,2.962983
756,-289.550781,38.574219,30.273438,-1.953125,-58.593750,2.960155
757,-277.343750,37.109375,31.250000,48.339844,27.832031,2.964061
758,164.550781,20.996094,24.414062,82.519531,119.140625,2.967967
759,429.199219,12.207031,19.531250,55.664062,86.425781,2.971873
760,182.617188,13.183594,22.460938,0.488281,-34.179688,2.975780
761,-270.019531,24.902344,30.273438,-9.765625,-107.910156,2.979686
762,-324.218750,35.156250,33.203125,41.503906,-35.644531,2.983592
763,106.445312,31.738281,25.878906,83.984375,74.707031,2.987498
764,421.875000,23.437500,17.089844,60.058594,55.664062,2.991405
765,235.839844,24.902344,17.578125,3.906250,-27.343750,2.995311
766,-223.632812,41.015625,29.296875,-9.765625,-81.542969,2.999217
767,-340.820312,34.667969,30.761719,28.320312,-28.320312,3.003123
768,42.480469,14.648438,17.089844,65.917969,98.144531,3.000085
769,392.578125,10.742188,10.742188,53.710938,85.449219,3.003991
770,273.437500,21.484375,19.042969,1.953125,-27.343750,3.007897
771,-189.453125,35.156250,30.273438,-19.531250,-65.429688,3.011803
772,-362.304688,38.085938,34.179688,23.925781,-1.953125,3.015710
773,-7.812500,27.343750,30.761719,77.148438,82.519531,3.019616
774,379.882812,15.136719,23.437500,65.429688,81.542969,3.023522
775,311.523438,18.554688,19.042969,7.324219,8.300781,3.027428
776,-140.136719,38.085938,29.785156,-16.601562,-79.101562,3.031335
777,-366.699219,41.015625,38.085938,17.089844,-60.058594,3.035241
778,-78.125000,20.507812,26.367188,60.546875,22.949219,3.039147
779,338.867188,12.207031,17.089844,63.476562,33.203125,3.043053
780,349.121094,20.019531,20.996094,17.089844,-32.226562,3.060191
781,-82.519531,31.738281,28.320312,-21.484375,-121.582031,3.064097
782,-371.093750,29.785156,31.738281,5.371094,-74.707031,3.068003
783,-133.789062,24.414062,26.855469,66.406250,67.382812,3.071909
784,320.800781,25.390625,18.554688,78.613281,62.988281,3.075816
785,392.089844,27.343750,18.554688,32.226562,-17.089844,3.079722
786,-9.277344,35.156250,27.343750,-5.859375,-100.097656,3.083628
787,-345.703125,41.015625,34.667969,12.207031,-88.378906,3.087534
788,-173.828125,32.226562,33.691406,65.917969,53.222656,3.091441
789,290.039062,22.949219,22.949219,82.031250,74.218750,3.095347
790,414.062500,26.367188,18.554688,37.597656,4.882812,3.099253
791,38.085938,38.085938,26.855469,-6.835938,-72.753906,3.103159
792,-340.332031,38.574219,36.132812,4.882812,-90.332031,3.100178
793,-234.863281,31.250000,35.156250,58.105469,49.316406,3.104084
794,226.562500,20.996094,24.414062,81.054688,121.093750,3.107990
795,417.480469,14.160156,23.437500,41.503906,69.824219,3.111897
796,89.355469,27.832031,29.785156,-6.835938,-22.949219,3.115803
797,-318.359375,41.503906,37.109375,0.000000,-61.035156,3.119709
798,-269.531250,30.273438,36.621094,53.710938,24.414062,3.123615
799,178.710938,19.042969,25.390625,83.496094,76.660156,3.127522
800,416.992188,16.113281,19.042969,49.804688,31.250000,3.131428
801,148.437500,20.996094,24.414062,-1.953125,-54.687500,3.135334
802,-279.785156,35.644531,33.691406,0.000000,-67.871094,3.139240
803,-300.292969,34.667969,35.156250,48.339844,-14.648438,3.143147
804,131.835938,22.949219,27.343750,80.078125,58.593750,3.140204
805,419.433594,15.136719,19.531250,57.617188,49.316406,3.144111
806,207.519531,13.183594,26.855469,8.789062,-54.687500,3.148017
807,-234.863281,23.925781,38.574219,0.976562,-112.304688,3.151923
808,-329.589844,29.785156,34.179688,36.132812,-61.523438,3.155829
809,66.406250,25.390625,23.437500,70.312500,66.894531,3.159736
810,400.390625,22.460938,19.531250,50.781250,72.753906,3.163642
811,242.187500,28.808594,17.578125,-5.371094,-20.996094,3.167548
812,-211.425781,36.132812,28.808594,-19.042969,-68.847656,3.171454
813,-357.910156,32.226562,32.714844,21.484375,-4.394531,3.175361
814,7.812500,25.390625,20.019531,67.871094,112.792969,3.179267
815,387.695312,19.531250,13.671875,57.617188,139.160156,3.183173
816,308.105469,20.507812,16.113281,2.929688,46.386719,3.199895
817,-146.484375,36.132812,27.343750,-23.925781,-63.964844,3.203801
818,-359.375000,37.109375,31.250000,10.253906,-32.226562,3.207707
819,-39.062500,25.878906,22.460938,62.988281,81.542969,3.211614
820,368.164062,20.996094,16.601562,62.500000,111.816406,3.215520
821,339.355469,24.902344,16.113281,12.695312,8.300781,3.219426
822,-112.304688,40.039062,20.996094,-14.648438,-73.730469,3.223332
823,-374.511719,44.921875,25.878906,19.042969,-22.949219,3.227239
824,-108.886719,36.621094,21.484375,65.917969,83.984375,3.231145
825,330.566406,23.437500,13.183594,69.824219,103.515625,3.235051
826,371.093750,18.554688,14.648438,26.367188,-0.488281,3.238957
827,-50.292969,28.808594,25.878906,-8.789062,-72.753906,3.242864
828,-362.792969,36.132812,33.691406,14.160156,-2.441406,3.240677
829,-163.574219,35.156250,29.296875,69.824219,54.199219,3.244583
830,291.015625,26.855469,20.019531,84.472656,40.039062,3.248489
831,394.042969,28.808594,18.066406,38.574219,-26.367188,3.252395
832,11.230469,39.550781,27.832031,-0.488281,-90.332031,3.256302
833,-339.355469,41.503906,34.179688,19.042969,-95.703125,3.260208
834,-198.730469,33.203125,31.738281,72.265625,-37.597656,3.264114
835,266.601562,19.042969,22.949219,88.867188,30.273438,3.268020
836,432.128906,19.531250,24.902344,52.734375,-13.183594,3.271927
837,84.960938,37.109375,30.761719,10.253906,-136.230469,3.275833
838,-314.453125,47.851562,38.574219,15.625000,-137.207031,3.279739
839,-249.023438,35.644531,34.667969,58.593750,1.464844,3.283645
840,207.031250,13.671875,17.578125,82.031250,114.746094,3.279749
841,424.804688,10.253906,14.160156,54.199219,85.937500,3.283655
842,127.929688,26.367188,23.437500,2.441406,2.441406,3.287562
843,-296.386719,37.109375,30.761719,-4.394531,-26.855469,3.291468
844,-287.597656,30.761719,27.832031,39.550781,23.437500,3.295374
845,153.808594,17.578125,21.484375,70.312500,61.523438,3.299280
846,415.039062,12.207031,20.507812,43.457031,53.710938,3.303187
847,171.386719,19.531250,24.414062,-14.648438,15.625000,3.307093
848,-273.437500,31.738281,29.785156,-23.925781,-42.968750,3.310999
849,-333.984375,32.714844,30.273438,21.972656,8.300781,3.314905
850,82.519531,20.507812,24.902344,57.617188,79.101562,3.318812
851,407.714844,10.742188,16.113281,42.968750,56.640625,3.322718
852,237.792969,20.019531,17.089844,-6.347656,-39.550781,3.339826
853,-220.703125,35.156250,30.273438,-19.531250,-56.640625,3.343733
854,-345.214844,32.226562,31.738281,20.507812,35.156250,3.347639
855,43.457031,22.460938,24.414062,67.382812,129.394531,3.351545
856,403.320312,18.554688,19.042969,63.476562,116.699219,3.355451
857,283.691406,24.414062,26.367188,15.136719,27.343750,3.359358
858,-169.921875,34.667969,39.062500,0.976562,-17.578125,3.363264
859,-354.492188,37.109375,39.550781,34.179688,-5.371094,3.367170
860,-19.531250,29.785156,34.667969,76.660156,50.781250,3.371076
861,381.835938,15.625000,26.855469,77.148438,85.449219,3.374983
862,329.589844,11.718750,25.390625,28.808594,20.996094,3.378889
863,-127.441406,26.367188,33.203125,-3.417969,-56.640625,3.382795
864,-371.093750,34.179688,38.574219,24.414062,-21.484375,3.380224
865,-87.402344,25.878906,35.644531,75.683594,81.542969,3.384130
866,342.285156,20.996094,29.296875,76.660156,88.867188,3.388036
867,358.398438,21.484375,26.855469,24.902344,-8.300781,3.391943
868,-74.707031,29.296875,33.691406,-12.695312,-83.007812,3.395849
869,-365.234375,34.667969,39.062500,7.812500,-33.203125,3.399755
870,-133.300781,26.367188,32.226562,58.593750,88.378906,3.403661
871,307.617188,13.183594,21.484375,59.570312,147.460938,3.407568
872,380.371094,15.625000,21.484375,9.765625,102.539062,3.411474
873,-7.812500,39.550781,32.226562,-18.554688,-14.648438,3.415380
874,-344.238281,47.851562,35.156250,-1.464844,-20.507812,3.419286
875,-188.964844,30.761719,31.250000,40.039062,69.335938,3.423193
876,271.972656,17.089844,25.390625,58.593750,89.355469,3.420322
877,406.738281,18.066406,23.437500,19.531250,57.128906,3.424228
878,45.410156,35.644531,33.203125,-16.601562,-37.597656,3.428134
879,-345.703125,40.527344,40.039062,-11.230469,-77.148438,3.432040
880,-245.605469,33.691406,50.781250,43.457031,30.273438,3.435947
881,230.468750,24.902344,52.734375,75.195312,132.324219,3.439853
882,403.808594,18.554688,34.667969,25.878906,88.378906,3.443759
883,77.148438,28.808594,47.363281,-20.019531,-12.695312,3.447665
884,-328.125000,38.574219,76.660156,-12.695312,-62.988281,3.451572
885,-308.593750,34.179688,73.242188,25.878906,31.738281,3.455478
886,137.207031,26.367188,66.406250,53.710938,154.785156,3.459384
887,384.277344,18.066406,66.894531,23.437500,101.562500,3.463290
888,104.980469,32.714844,79.101562,-38.085938,-31.738281,3.479822
889,-344.726562,51.757812,93.750000,-51.757812,-47.363281,3.483728
890,-377.441406,45.410156,86.425781,-9.765625,67.382812,3.487635
891,52.734375,29.296875,73.730469,23.925781,125.976562,3.491541
892,342.773438,25.390625,69.335938,8.789062,98.144531,3.495447
893,140.136719,43.945312,78.125000,-41.992188,-6.835938,3.499353
894,-313.476562,57.617188,93.750000,-59.570312,-79.589844,3.503260
895,-420.898438,51.269531,90.820312,-24.414062,4.882812,3.507166
896,-26.855469,37.109375,77.148438,12.207031,121.093750,3.511072
897,315.429688,34.179688,70.312500,-0.488281,85.449219,3.514978
898,183.105469,40.527344,69.335938,-54.199219,-24.414062,3.518885
899,-267.578125,45.898438,75.683594,-68.847656,-74.707031,3.522791
900,-431.640625,44.433594,76.660156,-33.203125,-13.671875,3.519839
901,-79.589844,37.597656,65.429688,5.371094,68.359375,3.523745
902,298.339844,32.226562,54.687500,-2.929688,81.542969,3.527651
903,229.003906,37.597656,56.640625,-49.316406,8.789062,3.531558
904,-212.890625,46.386719,64.941406,-62.500000,-74.707031,3.535464
905,-434.082031,45.898438,67.871094,-23.437500,-66.406250,3.539370
906,-129.394531,41.992188,60.058594,25.390625,73.730469,3.543276
907,293.945312,30.761719,49.804688,28.808594,102.539062,3.547183
908,295.410156,21.972656,46.875000,-13.183594,-7.324219,3.551089
909,-145.019531,36.621094,56.152344,-40.039062,-82.519531,3.554995
910,-422.851562,45.410156,58.105469,-21.972656,-60.058594,3.558901
911,-165.039062,34.179688,43.457031,27.343750,59.570312,3.562808
912,276.855469,23.925781,25.390625,36.621094,77.636719,3.561744
913,323.242188,25.390625,19.531250,-12.207031,-15.136719,3.565650
914,-89.355469,36.132812,30.273438,-42.480469,-64.453125,3.569556
915,-395.996094,29.785156,42.968750,-17.089844,-18.554688,3.573463
916,-201.660156,20.019531,32.226562,34.667969,73.242188,3.577369
917,257.812500,15.625000,13.671875,49.316406,88.867188,3.581275
918,373.535156,19.531250,10.253906,7.812500,29.296875,3.585181
919,-10.742188,38.085938,17.089844,-37.109375,-63.476562,3.589088
920,-373.535156,47.851562,19.531250,-26.855469,-81.054688,3.592994
921,-239.746094,37.597656,7.812500,24.414062,39.550781,3.596900
922,232.910156,26.855469,-4.394531,53.222656,112.304688,3.600806
923,406.250000,24.902344,-9.277344,20.019531,41.503906,3.604713
924,66.406250,22.460938,-6.347656,-27.343750,-35.156250,3.620121
925,-333.007812,29.785156,-0.976562,-24.902344,-20.996094,3.624027
926,-260.253906,32.714844,-4.882812,26.855469,49.804688,3.627934
927,208.984375,22.460938,-16.113281,61.523438,97.656250,3.631840
928,431.152344,29.785156,-22.949219,24.902344,42.968750,3.635746
929,142.578125,46.386719,-20.507812,-27.343750,-42.968750,3.639652
930,-277.343750,48.828125,-13.183594,-24.414062,-90.820312,3.643559
931,-288.085938,33.691406,-12.695312,18.066406,-19.531250,3.647465
932,147.460938,19.531250,-25.390625,48.828125,90.332031,3.651371
933,431.152344,16.113281,-26.367188,34.179688,53.710938,3.655277
934,208.496094,18.554688,-17.578125,-12.207031,-77.148438,3.659184
935,-240.722656,34.179688,-5.371094,-18.066406,-120.605469,3.663090
936,-306.640625,40.039062,-0.976562,30.273438,9.765625,3.660709
937,118.164062,25.390625,-8.300781,70.800781,94.238281,3.664615
938,442.382812,17.089844,-11.230469,58.593750,66.406250,3.668521
939,272.949219,25.878906,-6.835938,7.324219,3.417969,3.672427
940,-189.453125,38.085938,-2.441406,-9.277344,-23.437500,3.676334
941,-324.218750,35.156250,0.488281,33.203125,23.925781,3.680240
942,53.710938,23.925781,-2.929688,83.984375,113.281250,3.684146
943,422.363281,20.019531,-9.765625,72.753906,96.679688,3.688052
944,313.964844,20.996094,-7.324219,12.695312,14.648438,3.691959
945,-149.902344,35.156250,3.417969,-7.812500,-27.832031,3.695865
946,-343.261719,41.015625,8.789062,29.785156,-1.953125,3.699771
947,-14.160156,26.367188,0.488281,74.218750,101.074219,3.703677
948,381.347656,16.601562,-8.300781,72.265625,128.417969,3.699797
949,338.378906,21.484375,-3.417969,23.925781,51.757812,3.703703
950,-107.910156,33.203125,6.347656,-1.464844,-22.460938,3.707609
951,-358.398438,22.460938,9.765625,22.949219,35.644531,3.711515
952,-75.195312,15.136719,9.277344,74.707031,89.355469,3.715422
953,352.050781,19.042969,1.953125,79.589844,104.980469,3.719328
954,368.652344,21.484375,1.464844,30.761719,59.570312,3.723234
955,-49.316406,30.273438,11.718750,0.976562,-90.332031,3.727140
956,-337.890625,34.667969,17.089844,24.902344,-59.570312,3.731047
957,-122.558594,25.390625,11.718750,77.636719,88.378906,3.734953
958,319.335938,9.765625,3.417969,86.425781,106.933594,3.738859
959,410.156250,14.160156,1.953125,40.527344,34.667969,3.742765
960,15.625000,36.132812,12.207031,0.488281,-34.667969,3.760187
961,-333.007812,39.550781,19.042969,9.765625,-3.906250,3.764093
962,-174.804688,29.785156,13.183594,62.500000,96.679688,3.767999
963,281.250000,23.437500,4.394531,83.984375,76.660156,3.771905
964,425.781250,25.878906,4.394531,44.433594,6.835938,3.775812
965,81.542969,33.691406,13.183594,4.394531,-81.054688,3.779718
966,-306.640625,38.085938,17.089844,11.230469,-105.468750,3.783624
967,-223.632812,26.367188,14.648438,56.640625,13.671875,3.787530
968,242.187500,13.671875,6.835938,83.496094,68.847656,3.791437
969,444.824219,12.695312,4.394531,54.199219,28.808594,3.795343
970,134.277344,20.996094,14.648438,6.347656,-77.148438,3.799249
971,-275.390625,33.691406,22.460938,4.882812,-89.355469,3.803155
972,-248.535156,36.621094,19.531250,56.152344,6.347656,3.802353
973,189.941406,25.390625,13.183594,88.867188,64.453125,3.806259
974,444.335938,15.136719,10.253906,59.082031,57.128906,3.810166
975,188.476562,22.460938,18.066406,6.835938,-35.156250,3.814072
976,-254.882812,35.156250,27.832031,-2.929688,-123.046875,3.817978
977,-301.269531,29.785156,22.949219,41.015625,-41.015625,3.821884
978,122.070312,21.484375,15.625000,82.031250,47.851562,3.825791
979,431.152344,19.531250,11.230469,59.570312,-2.929688,3.829697
980,231.445312,24.414062,13.671875,4.882812,-57.128906,3.833603
981,-221.679688,34.667969,22.949219,-8.300781,-84.960938,3.837509
982,-325.195312,35.156250,27.832031,29.785156,-17.578125,3.841416
983,64.453125,24.414062,23.437500,71.777344,99.609375,3.845322
984,410.644531,12.695312,13.671875,62.011719,101.074219,3.839931
985,278.808594,17.089844,11.718750,13.671875,12.695312,3.843837
986,-177.246094,36.132812,22.460938,-2.929688,-68.359375,3.847744
987,-339.355469,33.203125,27.343750,34.667969,-57.128906,3.851650
988,20.019531,21.484375,20.019531,86.914062,41.503906,3.855556
989,400.390625,12.695312,17.089844,85.449219,56.152344,3.859462
990,322.753906,11.230469,18.066406,27.343750,-30.761719,3.863369
991,-129.882812,26.367188,26.855469,-2.441406,-88.378906,3.867275
992,-352.050781,35.644531,34.667969,25.878906,-74.218750,3.871181
993,-49.804688,20.507812,27.832031,70.312500,41.503906,3.875087
994,368.164062,8.789062,19.531250,66.894531,104.980469,3.878994
995,352.539062,11.230469,20.507812,17.089844,14.160156,3.882900
996,-92.285156,24.902344,32.714844,-11.718750,-91.796875,3.900281
997,-370.117188,28.808594,39.062500,12.695312,-50.781250,3.904188
998,-124.023438,15.625000,33.203125,70.312500,48.339844,3.908094
999,317.382812,4.394531,25.878906,82.519531,97.167969,3.912000
1000,373.535156,10.253906,23.437500,33.203125,60.058594,3.915906
1001,-36.132812,30.761719,28.808594,-1.464844,-53.222656,3.919813
1002,-355.468750,37.109375,34.179688,19.531250,-65.429688,3.923719
1003,-171.386719,27.832031,29.785156,67.871094,50.292969,3.927625
1004,285.644531,17.578125,22.460938,81.054688,72.265625,3.931531
1005,408.691406,17.578125,20.507812,41.015625,11.230469,3.935438
1006,24.902344,27.832031,27.832031,-3.417969,-49.804688,3.939344
1007,-344.726562,35.644531,36.132812,8.300781,-102.050781,3.943250
1008,-223.632812,24.414062,32.226562,60.546875,-11.718750,3.940104
1009,244.140625,8.789062,28.320312,80.566406,90.820312,3.944010
1010,426.757812,15.625000,22.949219,36.132812,76.660156,3.947916
1011,85.937500,27.832031,15.625000,-17.089844,-23.925781,3.951823
1012,-324.707031,34.667969,23.925781,-7.812500,-28.808594,3.955729
1013,-266.113281,32.226562,27.832031,45.898438,49.316406,3.959635
1014,195.312500,22.460938,18.554688,71.777344,76.660156,3.963541
1015,427.246094,17.089844,14.648438,40.039062,20.996094,3.967448
1016,146.972656,23.925781,22.460938,-9.277344,-77.636719,3.971354
1017,-277.832031,33.203125,35.644531,-3.906250,-98.144531,3.975260
1018,-292.968750,29.296875,34.667969,43.945312,-20.019531,3.979166
1019,146.484375,21.972656,23.437500,76.660156,94.238281,3.983073
1020,432.128906,15.625000,20.019531,58.593750,96.679688,3.981924
1021,201.171875,19.531250,25.390625,3.417969,10.253906,3.985831
1022,-252.441406,30.761719,36.621094,-9.765625,-17.089844,3.989737
1023,-331.542969,30.273438,35.644531,38.085938,72.265625,3.993643
1024,77.636719,19.042969,26.855469,83.007812,136.230469,3.997549
1025,408.203125,8.300781,22.460938,66.894531,105.468750,4.001456
1026,249.511719,15.625000,22.949219,11.230469,22.460938,4.005362
1027,-208.496094,31.250000,33.691406,-8.300781,-41.015625,4.009268
1028,-348.144531,35.644531,35.156250,28.320312,20.507812,4.013174
1029,17.089844,23.925781,26.367188,68.359375,94.238281,4.017081
1030,378.417969,12.695312,18.554688,52.734375,75.195312,4.020987
1031,291.503906,14.648438,20.996094,-0.488281,18.066406,4.024893
1032,-169.433594,23.925781,32.226562,-23.437500,-44.921875,4.044772
1033,-382.812500,27.832031,31.738281,6.835938,-33.691406,4.048678
1034,-51.269531,23.925781,25.390625,58.593750,99.121094,4.052584
1035,367.187500,23.925781,19.042969,63.476562,100.585938,4.056490
1036,345.703125,29.296875,21.484375,25.878906,-19.042969,4.060397
1037,-103.027344,38.085938,29.785156,5.859375,-96.191406,4.064303
1038,-376.953125,31.738281,35.644531,24.902344,-106.445312,4.068209
1039,-116.699219,16.113281,32.226562,60.546875,21.484375,4.072115
1040,312.500000,7.324219,21.972656,60.058594,145.507812,4.076022
1041,346.191406,14.160156,23.925781,20.507812,55.175781,4.079928
1042,-73.730469,24.902344,32.714844,-11.718750,-68.359375,4.083834
1043,-375.488281,26.367188,39.062500,12.207031,-25.390625,4.087740
1044,-153.808594,18.066406,35.644531,69.335938,64.453125,4.080865
1045,300.781250,11.718750,28.320312,81.054688,88.867188,4.084772
1046,393.554688,16.601562,26.367188,42.480469,39.550781,4.088678
1047,1.953125,31.250000,31.738281,1.464844,-39.062500,4.092584
1048,-344.726562,41.015625,36.621094,12.695312,-35.644531,4.096490
1049,-186.523438,29.296875,30.761719,66.406250,25.878906,4.100397
1050,279.296875,12.207031,18.554688,82.519531,65.917969,4.104303
1051,425.292969,13.671875,15.136719,41.015625,60.058594,4.108209
1052,68.847656,27.343750,27.343750,-10.253906,-34.667969,4.112115
1053,-315.917969,35.156250,33.203125,-5.859375,-95.214844,4.116022
1054,-233.398438,28.320312,29.296875,49.316406,28.320312,4.119928
1055,221.191406,20.996094,23.437500,75.195312,128.906250,4.123834
1056,421.386719,19.531250,20.019531,42.480469,79.589844,4.119862
1057,107.421875,27.832031,24.414062,-2.929688,-23.925781,4.123768
1058,-307.617188,35.644531,31.250000,0.000000,-54.687500,4.127675
1059,-288.085938,32.714844,31.250000,48.828125,32.226562,4.131581
1060,165.527344,23.437500,26.855469,81.054688,85.449219,4.135487
1061,427.734375,20.996094,21.484375,57.128906,33.203125,4.139393
1062,170.898438,31.250000,19.042969,3.906250,-53.222656,4.143300
1063,-265.136719,36.621094,28.808594,-2.929688,-114.257812,4.147206
1064,-312.500000,28.808594,30.761719,36.621094,-69.824219,4.151112
1065,108.398438,13.671875,20.019531,71.289062,45.898438,4.155018
1066,416.503906,12.207031,17.578125,56.640625,53.710938,4.158925
1067,228.515625,26.855469,25.878906,8.789062,-8.789062,4.162831
1068,-220.214844,35.156250,33.203125,-5.371094,-68.359375,4.180168
1069,-325.683594,31.250000,33.203125,35.644531,-1.464844,4.184074
1070,64.453125,20.996094,24.902344,82.031250,99.121094,4.187981
1071,414.550781,13.183594,19.531250,69.824219,88.867188,4.191887
1072,289.550781,24.414062,23.437500,14.648438,-14.648438,4.195793
1073,-168.457031,36.621094,31.738281,-7.812500,-114.257812,4.199699
1074,-346.679688,38.574219,36.621094,22.949219,-21.484375,4.203606
1075,-5.859375,27.343750,30.273438,69.824219,109.375000,4.207512
1076,381.835938,14.648438,20.507812,64.941406,113.281250,4.211418
1077,317.382812,21.484375,21.484375,13.183594,48.339844,4.215324
1078,-131.347656,35.644531,34.179688,-6.835938,-34.667969,4.219231
1079,-360.839844,37.109375,40.527344,30.761719,-33.203125,4.223137
1080,-61.035156,26.367188,30.761719,80.566406,60.546875,4.220200
1081,364.746094,18.554688,21.484375,82.519531,84.472656,4.224107
1082,360.839844,19.042969,24.414062,33.691406,27.343750,4.228013
1083,-81.542969,28.808594,27.343750,-3.906250,-42.968750,4.231919
1084,-364.746094,33.691406,31.250000,20.507812,-8.300781,4.235825
1085,-120.117188,26.367188,28.320312,72.753906,64.941406,4.239732
1086,324.218750,19.042969,18.554688,78.613281,99.121094,4.243638
1087,377.929688,25.390625,19.531250,29.296875,82.031250,4.247544
1088,-26.855469,47.363281,30.273438,-7.324219,-16.601562,4.251450
1089,-348.632812,51.269531,38.574219,9.765625,-31.738281,4.255357
1090,-172.851562,31.250000,32.714844,61.035156,60.058594,4.259263
1091,282.226562,16.113281,21.484375,82.519531,137.695312,4.263169
1092,409.179688,18.066406,18.554688,42.480469,68.847656,4.262149
1093,41.992188,31.250000,29.296875,1.464844,-55.175781,4.266055
1094,-333.007812,33.691406,38.085938,13.183594,-55.175781,4.269961
1095,-220.703125,28.320312,30.761719,62.011719,43.945312,4.273868
1096,254.882812,30.761719,25.390625,87.402344,90.820312,4.277774
1097,433.593750,26.367188,23.437500,51.269531,19.042969,4.281680
1098,95.703125,24.414062,22.949219,0.976562,-61.035156,4.285586
1099,-307.128906,28.808594,32.714844,7.812500,-44.921875,4.289493
1100,-261.718750,23.437500,33.203125,57.617188,49.804688,4.293399
1101,194.824219,19.042969,23.925781,85.449219,126.953125,4.297305
1102,434.570312,19.531250,24.902344,58.105469,112.792969,4.301211
1103,162.109375,33.203125,35.156250,12.207031,32.714844,4.305118
1104,-271.484375,41.503906,41.503906,8.789062,-0.976562,4.320238
1105,-288.574219,28.320312,36.132812,53.710938,65.429688,4.324144
1106,143.554688,15.136719,30.761719,87.402344,155.273438,4.328050
1107,426.757812,11.718750,27.832031,59.082031,103.027344,4.331956
1108,210.449219,22.460938,28.808594,6.835938,-19.042969,4.335863
1109,-239.257812,35.644531,41.992188,5.371094,-42.968750,4.339769
1110,-327.636719,32.714844,44.921875,45.410156,25.390625,4.343675
1111,72.753906,19.042969,32.714844,79.589844,118.652344,4.347581
1112,403.320312,9.277344,22.460938,59.570312,112.304688,4.351488
1113,250.000000,17.089844,26.367188,7.812500,3.906250,4.355394
1114,-212.402344,25.390625,38.574219,-5.859375,-43.457031,4.359300
1115,-361.816406,28.320312,42.480469,32.714844,-11.230469,4.363206
1116,14.160156,23.437500,36.132812,76.171875,51.269531,4.360122
1117,389.160156,12.207031,22.460938,61.523438,55.175781,4.364029
1118,292.968750,18.066406,17.089844,8.300781,-21.484375,4.367935
1119,-169.921875,37.109375,29.785156,-14.648438,-71.777344,4.371841
1120,-366.699219,40.039062,37.109375,18.066406,-27.343750,4.375747
1121,-41.992188,26.367188,29.296875,69.824219,95.703125,4.379654
1122,364.746094,19.531250,20.996094,66.894531,101.562500,4.383560
1123,337.890625,24.414062,21.972656,14.160156,3.906250,4.387466
1124,-105.957031,34.179688,37.109375,-12.695312,-60.058594,4.391372
1125,-364.257812,40.527344,42.480469,19.042969,-47.363281,4.395279
1126,-100.585938,26.855469,30.273438,68.847656,49.804688,4.399185
1127,335.449219,11.230469,20.019531,75.683594,82.519531,4.403091
1128,369.140625,20.019531,20.019531,35.644531,-2.929688,4.420227
1129,-55.664062,34.667969,30.273438,0.000000,-101.074219,4.424134
1130,-360.351562,37.109375,37.109375,16.113281,-84.472656,4.428040
1131,-149.902344,24.902344,34.179688,69.335938,60.546875,4.431946
1132,308.105469,14.160156,23.437500,81.542969,149.414062,4.435852
1133,408.203125,13.183594,21.972656,34.179688,62.011719,4.439759
1134,14.648438,27.343750,28.808594,-5.859375,-50.292969,4.443665
1135,-342.285156,35.156250,32.226562,13.671875,-44.921875,4.447571
1136,-211.914062,21.484375,28.320312,60.058594,56.152344,4.451477
1137,247.558594,11.230469,22.460938,74.707031,145.019531,4.455384
1138,410.644531,18.066406,23.437500,40.039062,111.328125,4.459290
1139,55.175781,27.832031,26.855469,-8.789062,32.226562,4.463196
1140,-333.496094,33.203125,32.714844,-3.417969,2.441406,4.460220
1141,-252.929688,29.296875,31.738281,49.804688,72.753906,4.464126
1142,207.519531,19.531250,20.996094,75.683594,154.785156,4.468032
1143,422.363281,23.437500,21.484375,43.945312,102.050781,4.471938
1144,121.582031,23.925781,29.785156,-5.859375,9.765625,4.475845
1145,-296.875000,27.343750,34.179688,-5.371094,-18.554688,4.479751
1146,-279.785156,29.296875,31.250000,44.921875,53.710938,4.483657
1147,169.921875,22.949219,24.414062,70.800781,128.906250,4.487563
1148,438.476562,23.437500,21.484375,46.386719,63.964844,4.491470
1149,190.429688,29.785156,20.507812,-6.347656,-46.386719,4.495376
1150,-251.464844,45.410156,30.273438,-11.718750,-80.566406,4.499282
1151,-305.175781,38.085938,33.691406,40.527344,-0.488281,4.503188
1152,101.074219,15.136719,21.484375,70.800781,105.957031,4.504946
1153,405.273438,9.765625,14.160156,44.433594,86.425781,4.508852
1154,225.097656,18.554688,18.554688,-6.835938,-13.183594,4.512759
1155,-233.398438,29.785156,26.855469,-19.531250,-106.933594,4.516665
1156,-347.656250,26.855469,29.785156,22.460938,-62.988281,4.520571
1157,48.339844,21.972656,21.972656,68.847656,74.218750,4.524477
1158,411.132812,22.949219,9.765625,60.546875,75.195312,4.528384
1159,290.527344,26.855469,17.089844,12.207031,-12.695312,4.532290
1160,-185.058594,35.644531,28.808594,-9.277344,-75.683594,4.536196
1161,-375.488281,33.691406,27.832031,19.042969,-7.324219,4.540102
1162,-32.714844,20.996094,21.484375,62.500000,105.468750,4.544009
1163,352.539062,11.230469,16.601562,55.664062,78.613281,4.547915
1164,301.269531,17.089844,23.925781,10.253906,0.976562,4.560320
1165,-139.160156,33.203125,38.085938,-9.765625,-69.335938,4.564226
1166,-375.488281,31.738281,40.527344,19.531250,-34.179688,4.568132
1167,-81.542969,23.925781,32.226562,67.871094,50.292969,4.572038
1168,344.238281,20.019531,24.414062,69.824219,46.386719,4.575945
1169,349.609375,20.996094,25.878906,21.972656,-13.183594,4.579851
1170,-83.984375,33.691406,35.156250,-11.230469,-86.914062,4.583757
1171,-356.445312,43.457031,41.503906,14.648438,-111.328125,4.587663
1172,-121.582031,35.156250,35.156250,55.175781,2.929688,4.591570
1173,307.128906,16.601562,18.066406,57.128906,111.816406,4.595476
1174,375.488281,17.578125,14.160156,19.531250,67.871094,4.599382
1175,-32.226562,30.761719,24.902344,-18.066406,-25.390625,4.603288
1176,-366.210938,34.667969,34.667969,-0.488281,6.347656,4.599864
1177,-186.035156,27.832031,33.203125,51.757812,57.617188,4.603770
1178,273.437500,19.531250,23.925781,73.242188,74.707031,4.607677
1179,393.554688,20.996094,20.996094,35.156250,49.804688,4.611583
1180,24.414062,27.832031,30.273438,-12.207031,-55.664062,4.615489
1181,-343.261719,35.156250,34.179688,4.394531,-73.730469,4.619395
1182,-234.863281,29.785156,31.738281,57.617188,32.714844,4.623302
1183,229.980469,17.578125,26.367188,78.125000,64.453125,4.627208
1184,409.667969,13.183594,22.460938,39.550781,19.042969,4.631114
1185,81.054688,23.437500,25.390625,-12.207031,-47.851562,4.635020
1186,-312.500000,37.597656,33.691406,-0.976562,-117.675781,4.638927
1187,-273.925781,29.296875,34.667969,46.386719,-23.437500,4.642833
1188,177.734375,15.625000,24.414062,70.312500,95.703125,4.640085
1189,427.246094,14.160156,20.507812,45.898438,85.937500,4.643991
1190,151.367188,20.996094,25.878906,-3.906250,-13.183594,4.647897
1191,-286.621094,28.808594,32.714844,-3.417969,-49.316406,4.651803
1192,-303.710938,29.785156,35.156250,42.480469,36.132812,4.655710
1193,142.578125,30.761719,27.343750,79.101562,104.492188,4.659616
1194,427.246094,26.855469,18.066406,57.128906,98.632812,4.663522
1195,203.125000,26.367188,15.625000,1.464844,9.277344,4.667428
1196,-243.652344,32.226562,22.949219,-12.207031,-52.734375,4.671335
1197,-323.730469,31.738281,24.902344,32.226562,6.835938,4.675241
1198,75.683594,21.484375,17.578125,73.730469,100.097656,4.679147
1199,407.714844,22.460938,14.160156,59.570312,88.378906,4.683053
1200,257.324219,33.691406,23.437500,6.835938,-8.789062,4.699943
1201,-200.683594,37.109375,34.179688,-12.207031,-48.828125,4.703849
1202,-351.562500,31.738281,31.250000,26.855469,18.554688,4.707755
1203,19.531250,26.367188,23.437500,74.218750,98.632812,4.711661
1204,399.902344,18.066406,19.042969,66.894531,108.398438,4.715568
1205,315.917969,19.042969,25.878906,15.136719,-15.625000,4.719474
1206,-149.902344,36.132812,35.156250,-7.812500,-136.718750,4.723380
1207,-369.140625,47.363281,37.597656,24.414062,-67.382812,4.727286
1208,-51.269531,36.621094,30.761719,66.406250,68.847656,4.731193
1209,354.003906,20.019531,18.554688,61.035156,72.265625,4.735099
1210,334.960938,22.949219,15.136719,10.742188,-13.183594,4.739005
1211,-106.933594,33.691406,28.320312,-17.089844,-76.171875,4.742911
1212,-373.046875,35.644531,35.156250,9.277344,5.371094,4.742455
1213,-99.121094,35.156250,28.320312,65.429688,121.582031,4.746361
1214,337.402344,29.296875,18.066406,72.265625,104.003906,4.750268
1215,368.652344,22.949219,18.554688,15.136719,-20.019531,4.754174
1216,-51.269531,33.203125,28.808594,-19.531250,-114.257812,4.758080
1217,-368.652344,33.691406,36.132812,1.464844,-84.472656,4.761986
1218,-169.433594,18.554688,32.226562,52.246094,0.976562,4.765893
1219,286.132812,8.300781,19.042969,70.312500,78.125000,4.769799
1220,380.859375,12.207031,19.531250,24.414062,33.691406,4.773705
1221,-5.859375,29.296875,27.832031,-20.507812,-84.960938,4.777611
1222,-350.585938,39.062500,37.109375,-4.882812,-98.144531,4.781518
1223,-212.890625,30.761719,39.550781,43.945312,26.855469,4.785424
1224,247.558594,18.554688,24.902344,61.523438,104.003906,4.779994
1225,409.179688,15.136719,17.578125,26.855469,48.339844,4.783900
1226,60.058594,27.832031,25.878906,-20.019531,-65.429688,4.787806
1227,-333.007812,39.550781,30.761719,-13.183594,-97.656250,4.791713
1228,-252.441406,27.832031,27.832031,40.527344,12.207031,4.795619
1229,214.843750,18.554688,18.554688,67.382812,59.082031,4.799525
1230,427.246094,20.019531,12.695312,30.761719,15.136719,4.803431
1231,126.953125,29.296875,18.554688,-21.484375,-29.785156,4.807338
1232,-288.085938,40.039062,29.785156,-9.277344,-53.710938,4.811244
1233,-274.902344,38.574219,31.738281,44.433594,-2.441406,4.815150
1234,160.156250,30.761719,20.019531,71.289062,84.472656,4.819056
1235,426.757812,24.414062,17.089844,47.851562,62.011719,4.822963
1236,187.500000,27.343750,24.902344,1.953125,-44.921875,4.840117
1237,-260.742188,36.621094,34.667969,-7.324219,-71.777344,4.844023
1238,-315.917969,37.597656,38.574219,35.644531,4.394531,4.847930
1239,106.445312,27.343750,27.832031,75.683594,81.542969,4.851836
1240,418.945312,24.414062,17.578125,54.199219,46.875000,4.855742
1241,237.304688,32.226562,20.507812,3.417969,-22.460938,4.859648
1242,-223.632812,42.480469,30.761719,-9.765625,-63.476562,4.863555
1243,-343.750000,41.992188,33.203125,27.343750,-7.812500,4.867461
1244,41.992188,23.925781,24.902344,70.800781,114.746094,4.871367
1245,400.390625,16.601562,21.484375,61.035156,79.589844,4.875273
1246,282.226562,24.414062,21.972656,5.859375,-41.503906,4.879180
1247,-181.640625,37.109375,29.785156,-15.136719,-89.355469,4.883086
1248,-362.792969,34.667969,35.644531,18.554688,-81.542969,4.880015
1249,-21.972656,19.042969,30.273438,65.917969,22.460938,4.883921
1250,363.281250,7.812500,23.925781,61.035156,74.218750,4.887827
1251,302.734375,10.253906,23.925781,8.789062,8.789062,4.891733
1252,-144.042969,23.925781,32.714844,-16.601562,-67.382812,4.895640
1253,-374.511719,32.714844,38.574219,14.160156,-9.765625,4.899546
1254,-85.449219,26.855469,35.644531,65.429688,118.652344,4.903452
1255,333.496094,14.160156,22.949219,65.429688,106.933594,4.907358
1256,346.679688,9.277344,22.949219,25.878906,27.343750,4.911265
1257,-69.824219,20.019531,36.132812,8.789062,-33.691406,4.915171
1258,-361.328125,30.273438,36.621094,20.507812,-15.136719,4.919077
1259,-143.066406,26.367188,27.832031,56.152344,89.355469,4.922983
1260,305.175781,20.996094,18.066406,65.917969,112.792969,4.924544
1261,375.000000,22.949219,14.160156,18.066406,53.710938,4.928450
1262,-30.761719,36.621094,24.414062,-21.484375,-18.066406,4.932356
1263,-363.769531,43.945312,29.785156,-6.835938,-20.507812,4.936262
1264,-191.406250,31.250000,22.949219,46.386719,91.796875,4.940169
1265,281.250000,24.414062,15.625000,71.777344,142.089844,4.944075
1266,411.621094,24.414062,10.742188,32.714844,76.660156,4.947981
1267,42.480469,36.132812,20.019531,-5.859375,-18.066406,4.951887
1268,-318.359375,43.945312,26.855469,7.812500,-35.644531,4.955794
1269,-210.937500,34.667969,20.996094,55.175781,58.593750,4.959700
1270,245.117188,23.925781,14.160156,83.496094,152.832031,4.963606
1271,433.593750,20.507812,12.207031,57.128906,51.269531,4.967512
1272,115.722656,27.832031,18.554688,6.835938,-73.242188,4.982319
1273,-284.667969,40.039062,33.203125,13.671875,-51.757812,4.986226
1274,-244.140625,41.015625,38.085938,65.917969,2.441406,4.990132
1275,199.218750,28.320312,21.484375,81.542969,42.480469,4.994038
1276,443.847656,23.437500,9.765625,46.875000,48.828125,4.997944
1277,170.898438,27.343750,18.066406,-3.417969,-11.230469,5.001851
1278,-275.878906,31.250000,30.273438,-12.207031,-62.011719,5.005757
1279,-296.875000,33.691406,29.785156,35.644531,-2.929688,5.009663
1280,134.765625,25.878906,22.460938,73.730469,127.929688,5.013569
1281,416.992188,16.113281,19.531250,49.804688,119.628906,5.017476
1282,203.613281,21.972656,23.437500,-3.906250,7.324219,5.021382
1283,-241.210938,38.085938,34.667969,-18.066406,-21.972656,5.025288
1284,-332.519531,34.667969,34.179688,28.320312,35.156250,5.019858
1285,75.195312,25.878906,25.390625,78.125000,107.421875,5.023764
1286,417.480469,21.484375,19.531250,63.476562,104.492188,5.027670
1287,257.324219,23.925781,22.460938,11.718750,-32.714844,5.031577
1288,-206.542969,38.574219,35.156250,-5.859375,-70.800781,5.035483
1289,-354.003906,37.597656,38.085938,32.714844,16.113281,5.039389
1290,11.718750,24.414062,31.738281,76.660156,94.726562,5.043295
1291,388.183594,21.972656,24.902344,66.406250,87.402344,5.047202
1292,301.757812,23.925781,21.484375,11.718750,-0.976562,5.051108
1293,-151.855469,34.667969,32.714844,-6.835938,-48.339844,5.055014
1294,-355.468750,41.015625,41.015625,27.832031,-18.066406,5.058920
1295,-39.062500,24.902344,31.250000,65.429688,54.687500,5.062827
1296,369.628906,15.136719,20.507812,63.476562,83.496094,5.059856
1297,355.468750,20.019531,23.925781,15.625000,17.089844,5.063762
1298,-88.378906,32.226562,32.226562,-15.136719,-51.269531,5.067668
1299,-359.863281,37.597656,29.785156,12.695312,-39.550781,5.071575
1300,-96.679688,27.832031,25.878906,67.382812,62.988281,5.075481
1301,335.449219,20.996094,24.902344,81.054688,123.535156,5.079387
1302,368.164062,21.484375,22.460938,32.226562,23.437500,5.083293
1303,-52.246094,31.250000,27.832031,-13.183594,-73.730469,5.087200
1304,-359.375000,40.527344,36.132812,6.347656,-73.730469,5.091106
1305,-169.433594,32.714844,31.250000,55.175781,32.714844,5.095012
1306,277.343750,20.507812,22.460938,62.011719,86.914062,5.098918
1307,389.648438,17.578125,22.460938,20.996094,22.949219,5.102825
1308,3.417969,26.367188,33.691406,-21.484375,-3.417969,5.120040
1309,-353.027344,34.667969,39.062500,-12.207031,-19.531250,5.123947
1310,-216.796875,31.250000,26.855469,41.015625,45.898438,5.127853
1311,241.210938,23.925781,20.996094,61.523438,97.167969,5.131759
1312,404.785156,20.507812,24.414062,26.367188,44.921875,5.135665
1313,60.058594,28.320312,28.808594,-16.113281,-19.531250,5.139572
1314,-329.589844,41.503906,37.597656,-10.742188,-56.152344,5.143478
1315,-251.953125,37.597656,37.597656,41.015625,19.531250,5.147384
1316,202.636719,18.066406,24.902344,66.894531,97.167969,5.151290
1317,416.992188,12.207031,20.019531,38.085938,57.617188,5.155197
1318,124.023438,23.437500,28.808594,-8.300781,-30.761719,5.159103
1319,-305.664062,32.226562,39.550781,-8.789062,-15.136719,5.163009
1320,-298.828125,26.855469,38.574219,41.992188,63.476562,5.160096
1321,144.531250,19.531250,29.296875,73.730469,122.070312,5.164002
1322,414.550781,20.996094,23.437500,47.851562,94.238281,5.167908
1323,177.734375,20.507812,29.296875,-4.882812,-34.667969,5.171815
1324,-271.972656,29.785156,34.667969,-13.183594,-88.867188,5.175721
1325,-325.195312,36.132812,30.273438,37.109375,-20.019531,5.179627
1326,102.539062,23.437500,24.902344,75.195312,66.894531,5.183533
1327,419.433594,18.554688,20.996094,56.152344,59.082031,5.187440
1328,237.304688,22.460938,22.949219,0.488281,-17.089844,5.191346
1329,-217.285156,36.621094,32.714844,-15.625000,-59.570312,5.195252
1330,-337.890625,41.992188,36.132812,32.226562,-33.203125,5.199158
1331,41.015625,26.855469,26.855469,72.753906,55.664062,5.203065
1332,399.902344,13.671875,21.484375,62.011719,48.828125,5.200093
1333,279.296875,14.648438,19.531250,7.812500,-17.578125,5.204000
1334,-174.804688,25.878906,29.785156,-13.183594,-42.968750,5.207906
1335,-335.937500,29.785156,40.039062,38.085938,-5.859375,5.211812
1336,-1.953125,28.320312,30.761719,84.960938,78.613281,5.215718
1337,375.976562,21.972656,16.113281,69.335938,106.933594,5.219625
1338,333.984375,26.367188,20.507812,18.066406,42.480469,5.223531
1339,-114.257812,41.015625,32.714844,-7.812500,-38.085938,5.227437
1340,-367.675781,37.597656,34.179688,18.066406,18.066406,5.231343
1341,-73.242188,27.343750,24.902344,66.406250,134.277344,5.235250
1342,361.816406,26.855469,16.113281,74.707031,118.652344,5.239156
1343,368.164062,28.320312,20.507812,23.925781,10.742188,5.243062
1344,-68.359375,36.621094,24.902344,-13.183594,-76.660156,5.260159
1345,-355.957031,38.085938,28.808594,12.207031,-102.539062,5.264065
1346,-122.558594,22.949219,28.320312,66.406250,-0.488281,5.267971
1347,323.242188,8.789062,19.042969,76.171875,82.031250,5.271878
1348,393.066406,10.742188,16.601562,27.343750,16.601562,5.275784
1349,-13.183594,29.296875,25.390625,-16.113281,-50.292969,5.279690
1350,-352.050781,39.550781,33.203125,1.464844,-47.363281,5.283596
1351,-178.222656,33.691406,29.296875,51.269531,21.972656,5.287503
1352,282.714844,21.484375,23.437500,64.453125,72.265625,5.291409
1353,409.179688,17.089844,20.507812,24.414062,38.574219,5.295315
1354,43.945312,29.296875,23.925781,-20.019531,-34.667969,5.299221
1355,-327.636719,37.597656,26.855469,-6.347656,-86.425781,5.303128
1356,-221.679688,29.296875,23.437500,46.875000,-7.812500,5.299793
1357,237.304688,17.089844,16.113281,71.777344,72.753906,5.303699
1358,422.851562,11.230469,15.625000,35.156250,32.714844,5.307606
1359,104.003906,20.507812,23.925781,-11.718750,-65.429688,5.311512
1360,-305.175781,32.714844,30.761719,-3.906250,-112.792969,5.315418
1361,-270.996094,29.296875,32.226562,46.386719,-23.437500,5.319324
1362,183.593750,27.832031,26.367188,83.007812,47.851562,5.323231
1363,429.687500,23.925781,17.578125,48.339844,13.183594,5.327137
1364,160.156250,21.484375,17.089844,-14.160156,-67.871094,5.331043
1365,-273.925781,35.644531,23.925781,-15.136719,-113.769531,5.334949
1366,-291.503906,41.503906,25.390625,39.550781,-46.386719,5.338856
1367,141.601562,30.273438,20.019531,76.660156,75.683594,5.342762
1368,430.175781,16.601562,9.765625,52.734375,51.269531,5.340556
1369,222.656250,20.507812,10.253906,2.929688,-54.199219,5.344462
1370,-231.933594,29.785156,25.390625,-5.859375,-79.589844,5.348369
1371,-325.195312,27.832031,31.738281,30.761719,-9.765625,5.352275
1372,85.449219,32.714844,31.738281,77.148438,77.636719,5.356181
1373,420.410156,25.878906,24.902344,65.429688,82.519531,5.360087
1374,259.765625,21.972656,19.042969,0.488281,8.789062,5.363994
1375,-197.265625,39.550781,29.296875,-20.019531,-60.546875,5.367900
1376,-346.191406,36.621094,36.132812,19.531250,-21.484375,5.371806
1377,16.601562,21.972656,32.714844,69.824219,103.027344,5.375712
1378,391.113281,17.578125,24.414062,62.988281,123.535156,5.379619
1379,304.687500,20.019531,20.019531,14.160156,18.554688,5.383525
1380,-138.671875,35.156250,30.761719,0.488281,-97.656250,5.399910
1381,-352.539062,37.109375,36.132812,30.761719,4.882812,5.403816
1382,-44.921875,26.367188,31.738281,77.636719,133.300781,5.407722
1383,370.117188,19.531250,23.925781,72.265625,117.675781,5.411629
1384,353.515625,19.042969,23.925781,20.019531,33.203125,5.415535
1385,-86.425781,37.597656,38.085938,-3.417969,-64.453125,5.419441
1386,-360.351562,40.527344,39.550781,13.183594,-37.109375,5.423347
1387,-112.304688,25.390625,26.855469,53.222656,55.664062,5.427254
1388,321.777344,15.136719,20.019531,60.546875,104.492188,5.431160
1389,367.187500,16.601562,22.949219,16.113281,66.406250,5.435066
1390,-46.386719,34.667969,30.273438,-15.136719,-50.292969,5.438972
1391,-364.257812,37.597656,36.132812,6.835938,-37.109375,5.442879
1392,-167.480469,27.343750,31.738281,55.664062,55.664062,5.439898
1393,291.015625,23.437500,24.902344,70.800781,54.687500,5.443804
1394,396.972656,25.878906,25.390625,29.296875,-16.113281,5.447710
1395,13.183594,32.714844,25.878906,-20.996094,-94.726562,5.451617
1396,-346.191406,40.039062,29.296875,-12.207031,-53.710938,5.455523
1397,-211.914062,34.667969,26.367188,41.503906,55.175781,5.459429
1398,253.906250,26.367188,21.972656,67.871094,92.285156,5.463335
1399,415.527344,26.367188,22.460938,30.273438,62.011719,5.467242
1400,73.242188,30.761719,23.925781,-16.601562,-30.761719,5.471148
1401,-315.917969,36.621094,30.273438,-4.394531,-95.214844,5.475054
1402,-250.488281,27.343750,32.226562,41.015625,5.859375,5.478960
1403,206.542969,18.554688,20.019531,67.871094,101.074219,5.482867
1404,431.640625,19.042969,16.113281,39.550781,38.085938,5.479846
1405,137.695312,25.390625,22.949219,-10.253906,-80.566406,5.483752
1406,-285.644531,40.527344,31.250000,-6.347656,-82.031250,5.487659
1407,-281.738281,38.085938,34.667969,40.527344,8.789062,5.491565
1408,158.203125,20.507812,20.996094,67.871094,83.496094,5.495471
1409,423.828125,13.671875,13.183594,43.945312,48.828125,5.499377
1410,181.640625,22.460938,24.414062,-6.835938,-62.011719,5.503284
1411,-263.183594,37.597656,37.597656,-8.789062,-76.660156,5.507190
1412,-318.847656,31.738281,42.968750,49.316406,-16.601562,5.511096
1413,107.421875,15.136719,32.226562,91.308594,71.777344,5.515002
1414,417.480469,18.066406,16.113281,56.152344,78.125000,5.518909
1415,236.816406,31.250000,19.531250,-3.906250,-30.761719,5.522815
1416,-216.308594,40.039062,31.250000,-11.718750,-106.933594,5.540144
1417,-343.750000,41.015625,30.761719,28.808594,-28.320312,5.544050
1418,41.503906,33.691406,22.949219,69.335938,87.890625,5.547956
1419,396.484375,28.808594,15.136719,56.152344,44.921875,5.551862
1420,270.507812,26.855469,14.648438,1.953125,-63.964844,5.555769
1421,-182.617188,29.296875,24.902344,-13.183594,-86.914062,5.559675
1422,-358.398438,29.785156,30.273438,25.390625,-18.066406,5.563581
1423,-20.996094,20.996094,23.437500,70.800781,78.613281,5.567487
1424,379.882812,20.019531,16.601562,69.335938,120.605469,5.571394
1425,326.171875,24.414062,15.625000,12.695312,26.367188,5.575300
1426,-127.929688,35.156250,26.855469,-19.531250,-64.453125,5.579206
1427,-364.746094,37.109375,35.156250,16.113281,-18.554688,5.583112
1428,-71.777344,26.367188,27.343750,69.335938,94.238281,5.579820
1429,358.398438,23.437500,17.578125,73.730469,121.093750,5.583726
1430,367.675781,28.320312,17.089844,27.343750,29.785156,5.587632
1431,-69.335938,36.621094,24.414062,-7.324219,-42.968750,5.591538
1432,-363.281250,33.691406,30.273438,15.625000,4.882812,5.595445
1433,-128.906250,26.855469,27.832031,70.312500,65.429688,5.599351
1434,321.289062,17.578125,25.390625,79.101562,75.683594,5.603257
1435,387.695312,16.601562,27.343750,32.226562,68.847656,5.607163
1436,-21.972656,27.832031,30.273438,-10.253906,-2.441406,5.611070
1437,-353.515625,39.550781,35.644531,7.324219,-32.714844,5.614976
1438,-189.453125,31.738281,34.667969,55.664062,91.308594,5.618882
1439,267.089844,10.742188,24.902344,71.777344,147.949219,5.622788
1440,406.250000,13.183594,20.996094,35.156250,64.941406,5.621843
1441,45.410156,30.273438,27.343750,-9.277344,-32.226562,5.625749
1442,-326.660156,40.527344,36.132812,3.906250,-39.550781,5.629655
1443,-223.632812,33.691406,34.667969,57.617188,65.917969,5.633562
1444,238.769531,22.949219,24.414062,82.519531,114.257812,5.637468
1445,428.710938,20.507812,17.089844,45.898438,30.273438,5.641374
1446,104.492188,27.343750,24.414062,-8.789062,-66.894531,5.645280
1447,-292.968750,35.156250,36.132812,-2.929688,-59.082031,5.649187
1448,-259.765625,30.761719,34.179688,51.269531,48.339844,5.653093
1449,184.570312,26.367188,26.367188,81.054688,112.304688,5.656999
1450,437.988281,20.507812,23.437500,53.710938,66.894531,5.660905
1451,168.945312,24.414062,24.414062,0.488281,-8.789062,5.664812
1452,-267.578125,40.527344,33.203125,-7.324219,-50.781250,5.680293
1453,-297.363281,34.179688,34.667969,38.085938,14.648438,5.684199
1454,133.789062,21.972656,22.949219,72.265625,109.375000,5.688105
1455,426.757812,20.996094,18.554688,50.781250,79.101562,5.692011
1456,218.261719,25.878906,21.484375,-1.464844,-49.804688,5.695918
1457,-233.886719,34.667969,28.320312,-14.160156,-112.792969,5.699824
1458,-330.078125,36.621094,32.714844,34.667969,-19.531250,5.703730
1459,67.871094,21.972656,24.902344,73.730469,93.261719,5.707636
1460,407.226562,10.253906,17.089844,52.246094,62.988281,5.711543
1461,266.113281,16.601562,20.019531,-0.976562,-13.671875,5.715449
1462,-191.406250,32.226562,30.761719,-20.996094,-38.085938,5.719355
1463,-348.632812,36.132812,33.691406,16.113281,5.371094,5.723261
1464,15.136719,27.343750,23.437500,60.058594,86.914062,5.720298
1465,389.160156,19.531250,13.183594,53.710938,114.257812,5.724205
1466,304.199219,20.996094,15.136719,0.488281,40.527344,5.728111
1467,-149.902344,35.156250,27.832031,-30.273438,0.000000,5.732017
1468,-365.722656,40.527344,36.621094,3.906250,56.640625,5.735923
1469,-47.851562,36.621094,30.273438,56.152344,119.140625,5.739830
1470,364.257812,29.785156,23.925781,57.617188,91.796875,5.743736
1471,337.890625,25.878906,21.484375,7.812500,5.371094,5.747642
1472,-103.515625,36.132812,31.250000,-19.042969,-75.683594,5.751548
1473,-366.699219,40.527344,40.039062,13.671875,-58.593750,5.755455
1474,-113.281250,26.367188,30.761719,61.035156,62.011719,5.759361
1475,320.800781,15.625000,20.507812,64.941406,109.863281,5.763267
1476,375.000000,26.367188,21.484375,22.460938,44.433594,5.760491
1477,-41.015625,39.062500,30.761719,-15.625000,-42.480469,5.764397
1478,-360.351562,41.503906,36.132812,2.441406,-25.878906,5.768303
1479,-159.667969,34.667969,29.785156,53.222656,83.007812,5.772209
1480,295.410156,27.343750,22.460938,69.335938,115.234375,5.776116
1481,396.484375,20.507812,19.042969,32.714844,40.527344,5.780022
1482,14.648438,24.414062,21.484375,-10.742188,-68.359375,5.783928
1483,-337.890625,36.132812,31.250000,2.441406,-54.687500,5.787834
1484,-207.519531,35.644531,28.808594,53.222656,51.757812,5.791741
1485,253.417969,29.785156,16.113281,73.242188,107.910156,5.795647
1486,418.945312,24.902344,14.648438,32.226562,72.265625,5.799553
1487,73.242188,23.437500,22.949219,-20.019531,-27.832031,5.803459
1488,-318.847656,27.343750,34.667969,-10.253906,-75.683594,5.819793
1489,-251.464844,25.878906,33.691406,38.085938,21.972656,5.823699
1490,201.660156,15.625000,19.531250,64.453125,88.867188,5.827605
1491,421.386719,8.789062,19.531250,38.085938,13.183594,5.831511
1492,125.000000,21.484375,24.902344,-12.695312,-44.433594,5.835418
1493,-298.339844,31.250000,29.785156,-11.718750,-37.109375,5.839324
1494,-289.550781,27.343750,31.738281,37.109375,37.597656,5.843230
1495,153.320312,18.554688,23.437500,69.335938,107.421875,5.847136
1496,424.316406,17.089844,17.578125,44.921875,63.476562,5.851043
1497,188.964844,29.296875,22.460938,-7.812500,-43.945312,5.854949
1498,-255.859375,34.667969,29.296875,-14.648438,-70.312500,5.858855
1499,-317.871094,29.296875,28.320312,29.785156,31.250000,5.862761
1500,99.121094,23.437500,25.878906,69.335938,96.191406,5.862604
1501,418.457031,21.484375,24.414062,55.664062,82.519531,5.866511
1502,243.164062,22.949219,23.437500,0.488281,-8.789062,5.870417
1503,-215.820312,30.273438,29.296875,-16.113281,-70.312500,5.874323
1504,-344.726562,37.109375,33.691406,27.343750,-7.812500,5.878229
1505,37.597656,30.273438,25.390625,73.730469,83.007812,5.882136
1506,395.019531,23.437500,19.531250,64.941406,54.199219,5.886042
1507,276.855469,23.925781,22.949219,9.765625,-28.808594,5.889948
1508,-174.316406,33.691406,29.785156,-11.718750,-37.109375,5.893854
1509,-361.328125,35.644531,34.667969,21.484375,-9.277344,5.897761
1510,-29.296875,25.878906,28.808594,62.011719,71.289062,5.901667
1511,369.628906,20.507812,20.019531,56.152344,69.335938,5.905573
1512,321.289062,17.089844,20.996094,7.324219,-22.949219,5.920256
1513,-134.765625,32.226562,33.203125,-18.066406,-73.242188,5.924162
1514,-375.488281,41.015625,44.433594,15.625000,-59.570312,5.928069
1515,-85.449219,26.855469,39.062500,69.335938,67.871094,5.931975
1516,335.937500,18.554688,21.972656,68.847656,115.234375,5.935881
1517,352.050781,23.437500,18.554688,20.507812,26.367188,5.939787
1518,-73.730469,35.644531,29.785156,-10.742188,-30.273438,5.943694
1519,-370.605469,35.156250,34.179688,5.859375,-14.160156,5.947600
1520,-146.484375,19.531250,22.949219,51.269531,66.406250,5.951506
1521,304.687500,14.648438,11.718750,64.453125,81.054688,5.955412
1522,381.347656,23.925781,20.996094,20.507812,13.671875,5.959319
1523,-21.972656,33.203125,33.203125,-20.019531,-40.039062,5.963225
1524,-360.351562,33.203125,36.621094,-5.859375,-25.878906,5.960205
1525,-195.800781,25.390625,32.714844,46.875000,35.156250,5.964111
1526,262.207031,13.671875,20.996094,65.429688,83.984375,5.968018
1527,399.414062,10.742188,18.554688,22.949219,44.433594,5.971924
1528,41.503906,27.832031,25.878906,-19.531250,-33.203125,5.975830
1529,-333.007812,41.503906,32.226562,-14.160156,-62.500000,5.979736
1530,-228.027344,39.550781,31.250000,35.156250,-17.578125,5.983643
1531,236.328125,32.714844,19.531250,63.476562,23.925781,5.987549
1532,437.011719,28.320312,14.160156,35.644531,0.976562,5.991455
1533,114.257812,28.808594,23.925781,-12.207031,-85.449219,5.995361
1534,-317.382812,35.644531,38.085938,-19.042969,-86.914062,5.999268
1535,-285.156250,30.761719,37.597656,31.250000,22.460938,6.003174
1536,168.457031,20.019531,28.808594,66.894531,75.683594,5.999927
1537,406.738281,17.578125,27.832031,35.156250,52.734375,6.003834
1538,152.832031,24.414062,29.296875,-15.136719,-46.386719,6.007740
1539,-272.460938,34.667969,37.109375,-20.019531,-67.382812,6.011646
1540,-304.687500,33.691406,39.550781,29.785156,30.273438,6.015552
1541,132.324219,25.390625,30.761719,78.613281,108.886719,6.019459
1542,430.175781,16.113281,24.902344,58.105469,109.863281,6.023365
1543,222.167969,23.925781,25.878906,1.464844,-3.417969,6.027271
1544,-233.398438,39.550781,32.714844,-7.324219,-99.609375,6.031177
1545,-340.820312,35.644531,37.597656,37.109375,-58.105469,6.035084
1546,48.339844,15.625000,29.785156,74.218750,63.476562,6.038990
1547,392.089844,9.765625,23.925781,61.035156,82.519531,6.042896
1548,259.765625,24.414062,28.320312,6.835938,-14.648438,6.059601
1549,-191.894531,39.062500,36.621094,-12.695312,-97.656250,6.063507
1550,-357.421875,42.480469,43.457031,30.273438,-56.640625,6.067413
1551,-2.929688,29.296875,31.250000,74.707031,72.753906,6.071320
1552,378.417969,16.601562,18.554688,62.011719,102.050781,6.075226
1553,299.804688,18.554688,24.902344,10.253906,6.835938,6.079132
1554,-150.390625,36.132812,38.085938,-15.625000,-54.199219,6.083038
1555,-363.769531,42.968750,42.480469,12.695312,15.136719,6.086945
1556,-60.546875,33.691406,34.179688,60.546875,132.812500,6.090851
1557,359.375000,27.343750,27.343750,63.476562,150.390625,6.094757
1558,344.238281,24.414062,23.925781,9.277344,104.492188,6.098663
1559,-101.074219,31.738281,29.785156,-29.785156,26.367188,6.102570
1560,-366.210938,33.691406,38.574219,-2.441406,26.855469,6.101257
1561,-116.210938,24.902344,30.273438,51.269531,131.347656,6.105163
1562,326.660156,10.253906,20.996094,56.152344,115.722656,6.109070
1563,374.023438,14.160156,19.042969,4.882812,22.460938,6.112976
1564,-45.410156,41.015625,31.250000,-27.832031,-9.765625,6.116882
1565,-358.398438,55.175781,43.945312,1.464844,-5.859375,6.120788
1566,-175.781250,37.109375,29.785156,53.222656,34.179688,6.124695
1567,273.437500,18.554688,19.531250,67.382812,84.472656,6.128601
1568,387.695312,20.019531,23.925781,23.925781,55.175781,6.132507
1569,9.277344,33.203125,26.855469,-22.460938,-29.296875,6.136413
1570,-345.214844,42.480469,33.691406,-3.906250,-73.242188,6.140320
1571,-216.308594,32.226562,34.179688,47.363281,-28.320312,6.144226
1572,238.281250,19.531250,26.367188,63.476562,62.988281,6.140119
1573,407.226562,17.089844,23.437500,31.250000,63.476562,6.144025
1574,73.730469,30.273438,33.203125,-12.695312,-48.828125,6.147931
1575,-324.707031,40.527344,42.480469,-6.835938,-92.773438,6.151838
1576,-262.695312,37.109375,38.574219,48.828125,-0.976562,6.155744
1577,196.289062,23.925781,26.367188,73.242188,82.519531,6.159650
1578,422.363281,14.648438,18.554688,43.945312,37.109375,6.163556
1579,129.882812,27.343750,28.808594,-10.742188,-54.199219,6.167463
1580,-291.015625,41.015625,34.179688,-12.207031,-84.472656,6.171369
1581,-290.039062,34.667969,29.296875,40.039062,-33.691406,6.175275
1582,148.437500,22.949219,23.437500,71.289062,51.269531,6.179181
1583,425.781250,23.437500,20.019531,54.199219,19.042969,6.183088
1584,200.683594,31.250000,23.437500,0.000000,-64.941406,6.200249
1585,-237.304688,41.992188,31.738281,-12.207031,-113.769531,6.204155
1586,-304.687500,36.132812,31.250000,33.691406,-43.945312,6.208061
1587,112.792969,23.437500,24.414062,75.683594,78.613281,6.211967
1588,438.964844,20.996094,20.507812,58.593750,70.312500,6.215874
1589,270.019531,30.761719,22.460938,2.441406,-11.718750,6.219780
1590,-187.500000,48.339844,31.250000,-8.300781,-77.636719,6.223686
1591,-327.148438,40.527344,33.203125,36.621094,-42.968750,6.227592
1592,48.339844,20.507812,24.902344,76.171875,104.492188,6.231499
1593,407.714844,20.019531,23.925781,68.847656,134.765625,6.235405
1594,291.015625,27.343750,29.785156,18.066406,19.042969,6.239311
1595,-164.062500,33.691406,34.179688,-6.835938,-49.804688,6.243217
1596,-353.515625,38.574219,35.644531,29.785156,17.089844,6.240175
1597,-21.972656,35.644531,28.808594,80.566406,127.929688,6.244081
1598,375.488281,26.855469,21.484375,75.195312,120.117188,6.247988
1599,330.566406,24.414062,18.066406,16.113281,23.437500,6.251894
1600,-111.816406,38.574219,26.367188,-12.207031,-44.921875,6.255800
1601,-351.562500,44.433594,34.667969,24.902344,-29.296875,6.259706
1602,-79.589844,27.343750,26.367188,71.777344,72.753906,6.263613
1603,346.679688,18.066406,20.996094,71.777344,116.699219,6.267519
1604,368.164062,21.972656,24.414062,27.343750,62.500000,6.271425
1605,-57.617188,31.250000,35.156250,-6.835938,-39.062500,6.275331
1606,-351.562500,42.968750,41.015625,17.089844,-78.125000,6.279238
1607,-137.695312,34.667969,36.132812,67.382812,25.390625,6.283144
1608,305.175781,20.019531,27.343750,77.636719,85.449219,6.279768
1609,388.183594,19.531250,25.878906,36.621094,33.691406,6.283675
1610,-2.441406,31.250000,34.667969,-4.882812,-37.109375,6.287581
1611,-337.402344,41.992188,38.085938,12.207031,-50.781250,6.291487
1612,-182.128906,29.785156,35.156250,69.335938,39.062500,6.295393
1613,278.320312,9.277344,23.437500,92.773438,76.171875,6.299300
1614,425.292969,11.230469,19.531250,50.781250,-2.441406,6.303206
1615,64.453125,25.878906,27.343750,-2.929688,-99.121094,6.307112
1616,-312.988281,35.644531,36.132812,6.835938,-81.542969,6.311018
1617,-220.214844,32.226562,37.597656,60.058594,27.832031,6.314925
1618,233.398438,18.066406,27.832031,81.542969,86.425781,6.318831
1619,426.757812,16.113281,22.460938,44.433594,47.363281,6.322737
1620,115.234375,22.460938,28.320312,-8.789062,-47.363281,6.340222
1621,-295.410156,26.855469,38.085938,-6.835938,-67.871094,6.344128
1622,-273.925781,29.785156,37.597656,45.898438,6.347656,6.348034
1623,170.410156,18.554688,26.367188,76.171875,75.683594,6.351941
1624,418.457031,11.230469,20.019531,45.410156,71.777344,6.355847
1625,161.621094,29.296875,27.832031,-1.953125,-46.875000,6.359753
1626,-268.554688,44.433594,36.132812,-2.929688,-66.406250,6.363659
1627,-307.128906,34.179688,31.738281,41.503906,13.183594,6.367566
1628,114.257812,17.578125,18.554688,68.359375,65.429688,6.371472
1629,418.457031,16.601562,13.183594,46.875000,64.453125,6.375378
1630,217.773438,24.414062,20.507812,-4.882812,-26.855469,6.379284
1631,-240.234375,33.691406,31.738281,-22.460938,-44.433594,6.383191
1632,-338.378906,33.691406,33.691406,18.554688,45.410156,6.380147
1633,55.175781,24.902344,25.878906,61.035156,104.003906,6.384053
1634,394.531250,17.089844,21.484375,47.363281,60.546875,6.387959
1635,259.277344,18.066406,25.390625,-2.929688,-3.417969,6.391865
1636,-195.800781,32.226562,35.156250,-21.484375,-31.250000,6.395772
1637,-350.097656,39.550781,40.527344,22.460938,1.953125,6.399678
1638,1.953125,25.390625,32.714844,69.824219,93.261719,6.403584
1639,381.835938,13.671875,18.554688,58.105469,89.843750,6.407490
1640,309.570312,21.484375,18.066406,8.789062,5.859375,6.411397
1641,-145.019531,39.062500,28.808594,-12.695312,-67.871094,6.415303
1642,-365.234375,38.085938,31.738281,16.601562,-45.410156,6.419209
1643,-67.382812,20.996094,22.460938,61.523438,51.269531,6.423115
1644,341.796875,12.695312,15.625000,60.546875,81.542969,6.419781
1645,337.890625,21.484375,21.484375,8.789062,0.000000,6.423687
1646,-99.121094,38.085938,31.738281,-22.460938,-88.378906,6.427593
1647,-376.464844,43.457031,37.109375,5.859375,-62.011719,6.431499
1648,-124.023438,28.320312,28.320312,54.199219,47.851562,6.435406
1649,325.195312,22.460938,22.460938,65.917969,88.378906,6.439312
1650,377.929688,27.832031,23.437500,22.949219,2.929688,6.443218
1651,-40.527344,31.250000,26.855469,-20.019531,-67.871094,6.447124
1652,-356.933594,41.503906,33.203125,-1.464844,-62.011719,6.451031
1653,-173.828125,39.062500,28.320312,50.292969,24.902344,6.454937
1654,274.414062,26.855469,19.042969,65.917969,90.332031,6.458843
1655,390.136719,29.785156,16.113281,26.855469,42.480469,6.462749
1656,15.136719,37.109375,23.437500,-16.601562,-23.437500,6.480184
1657,-342.773438,42.480469,33.691406,-1.464844,-29.296875,6.484090
1658,-223.144531,36.621094,31.738281,50.292969,14.160156,6.487997
1659,239.257812,22.949219,23.925781,70.312500,71.289062,6.491903
1660,422.363281,22.949219,25.390625,38.085938,41.015625,6.495809
1661,88.867188,35.156250,31.250000,-7.812500,-44.433594,6.499715
1662,-313.964844,34.667969,33.691406,-2.929688,-63.964844,6.503622
1663,-257.812500,22.949219,34.179688,44.433594,3.906250,6.507528
1664,189.941406,20.019531,23.925781,64.453125,83.496094,6.511434
1665,414.550781,26.367188,22.460938,39.062500,37.597656,6.515340
1666,136.230469,32.226562,30.761719,-7.324219,-45.410156,6.519247
1667,-288.574219,37.109375,33.203125,-11.230469,-44.921875,6.523153
1668,-303.710938,34.179688,29.785156,38.574219,47.851562,6.520119
1669,136.718750,32.226562,24.902344,76.171875,120.117188,6.524026
1670,420.898438,24.902344,20.019531,51.757812,91.308594,6.527932
1671,192.871094,24.414062,24.902344,-5.371094,-30.273438,6.531838
1672,-249.511719,35.644531,39.062500,-14.160156,-40.039062,6.535744
1673,-317.871094,31.738281,40.039062,33.691406,57.128906,6.539651
1674,78.125000,16.113281,29.785156,73.242188,118.164062,6.543557
1675,395.019531,11.230469,20.996094,50.781250,103.027344,6.547463
1676,238.281250,25.878906,26.367188,-4.394531,-17.578125,6.551369
1677,-216.796875,36.132812,35.156250,-18.554688,-76.660156,6.555276
1678,-355.957031,27.832031,34.179688,19.042969,-19.042969,6.559182
1679,14.648438,20.507812,26.367188,57.617188,74.218750,6.563088
1680,387.207031,20.996094,20.996094,50.292969,61.035156,6.562595
1681,285.156250,21.484375,25.878906,-2.441406,-11.718750,6.566501
1682,-169.433594,34.179688,35.156250,-21.972656,-20.996094,6.570407
1683,-369.140625,35.156250,35.644531,16.601562,22.949219,6.574314
1684,-45.410156,26.367188,28.808594,65.429688,76.660156,6.578220
1685,360.351562,15.136719,20.019531,63.964844,51.269531,6.582126
1686,321.289062,19.042969,18.554688,11.230469,-9.277344,6.586032
1687,-125.488281,35.156250,30.273438,-16.601562,-47.363281,6.589939
1688,-372.558594,34.667969,37.109375,15.625000,-55.664062,6.593845
1689,-94.238281,24.414062,30.273438,62.011719,55.664062,6.597751
1690,331.542969,20.507812,17.578125,60.058594,98.144531,6.601657
1691,352.050781,21.972656,16.113281,13.671875,47.363281,6.605564
1692,-68.847656,32.226562,24.902344,-16.601562,5.859375,6.620981
1693,-365.722656,34.667969,29.785156,2.441406,-1.464844,6.624888
1694,-156.250000,21.484375,27.832031,51.757812,84.960938,6.628794
1695,293.457031,13.671875,15.625000,62.988281,108.398438,6.632700
1696,380.371094,24.414062,13.671875,18.554688,39.550781,6.636606
1697,-7.324219,36.132812,28.320312,-22.460938,-21.972656,6.640513
1698,-345.214844,37.109375,32.226562,-6.347656,-31.738281,6.644419
1699,-201.660156,32.714844,23.925781,47.851562,56.152344,6.648325
1700,253.906250,20.507812,16.601562,61.035156,124.511719,6.652231
1701,405.273438,16.113281,14.648438,20.996094,53.222656,6.656138
1702,57.617188,31.250000,23.437500,-22.460938,-48.828125,6.660044
1703,-329.589844,36.621094,30.761719,-15.136719,-20.996094,6.663950
1704,-246.582031,26.855469,31.250000,36.132812,39.550781,6.659930
1705,210.449219,21.972656,21.972656,61.035156,80.566406,6.663837
1706,413.085938,25.878906,15.136719,25.390625,48.828125,6.667743
1707,111.328125,30.761719,23.925781,-24.902344,-46.875000,6.671649
1708,-306.640625,34.179688,35.156250,-20.996094,-48.339844,6.675555
1709,-288.085938,32.714844,35.644531,34.179688,37.109375,6.679462
1710,161.621094,21.484375,26.367188,68.359375,90.820312,6.683368
1711,420.410156,14.648438,18.554688,45.410156,66.406250,6.687274
1712,170.898438,23.437500,23.925781,-6.347656,-24.902344,6.691180
1713,-260.742188,40.039062,34.667969,-10.742188,-81.542969,6.695087
1714,-307.617188,38.085938,31.738281,39.550781,-12.207031,6.698993
1715,108.886719,23.437500,21.972656,69.824219,102.539062,6.702899
1716,415.527344,18.066406,19.531250,48.339844,93.261719,6.700099
1717,233.886719,20.507812,24.414062,6.347656,-16.113281,6.704006
1718,-211.914062,24.414062,33.691406,4.394531,-60.546875,6.707912
1719,-324.218750,31.738281,34.667969,40.527344,34.667969,6.711818
1720,57.617188,31.738281,21.484375,65.429688,118.164062,6.715724
1721,406.250000,23.437500,9.765625,50.781250,115.234375,6.719631
1722,287.597656,25.878906,11.718750,4.394531,24.902344,6.723537
1723,-168.945312,35.644531,22.949219,-20.019531,-69.824219,6.727443
1724,-339.355469,37.109375,22.949219,13.671875,-21.484375,6.731349
1725,14.160156,28.320312,15.136719,66.406250,111.328125,6.735256
1726,390.625000,19.531250,10.742188,57.617188,122.070312,6.739162
1727,318.847656,19.531250,10.742188,3.906250,26.367188,6.743068
1728,-122.558594,36.132812,19.531250,-15.625000,-52.734375,6.760026
1729,-353.515625,45.410156,29.296875,18.554688,-3.906250,6.763932
1730,-66.894531,28.320312,22.949219,67.382812,104.003906,6.767838
1731,354.980469,9.765625,15.136719,70.800781,81.054688,6.771744
1732,364.746094,14.648438,18.066406,25.878906,0.976562,6.775651
1733,-58.105469,34.179688,30.273438,-0.976562,-53.222656,6.779557
1734,-337.890625,41.992188,37.109375,21.972656,-39.062500,6.783463
1735,-107.910156,38.574219,28.808594,67.382812,50.292969,6.787369
1736,332.519531,31.738281,17.089844,75.195312,65.429688,6.791276
1737,401.367188,22.949219,14.648438,30.273438,-21.972656,6.795182
1738,-5.371094,31.250000,22.460938,-9.765625,-93.750000,6.799088
1739,-343.261719,36.132812,27.343750,4.882812,-56.640625,6.802994
1740,-174.316406,30.761719,25.390625,55.664062,41.015625,6.802858
1741,283.203125,26.855469,18.066406,73.730469,71.777344,6.806764
1742,402.343750,22.460938,17.578125,33.203125,42.968750,6.810671
1743,24.902344,30.273438,25.390625,-18.066406,-34.667969,6.814577
1744,-347.167969,37.597656,30.273438,-8.300781,-38.085938,6.818483
1745,-241.699219,32.226562,26.367188,40.527344,85.449219,6.822389
1746,211.425781,17.578125,17.578125,54.687500,109.863281,6.826296
1747,389.648438,6.835938,15.625000,24.414062,41.992188,6.830202
1748,69.824219,17.089844,21.972656,-15.625000,-17.089844,6.834108
1749,-327.148438,33.203125,35.156250,-6.835938,-45.410156,6.838014
1750,-281.250000,34.179688,37.109375,45.898438,38.574219,6.841921
1751,165.527344,21.972656,27.343750,77.636719,112.792969,6.845827
1752,402.343750,14.160156,21.484375,55.664062,37.109375,6.839938
1753,132.324219,19.531250,21.972656,-0.976562,-61.523438,6.843844
1754,-289.062500,33.691406,32.714844,-6.347656,-73.730469,6.847750
1755,-297.363281,34.179688,35.156250,43.945312,-16.113281,6.851657
1756,140.625000,20.507812,26.367188,79.589844,45.898438,6.855563
1757,430.175781,20.996094,22.460938,56.640625,18.554688,6.859469
1758,218.261719,30.761719,22.949219,-4.394531,-79.589844,6.863375
1759,-230.468750,36.621094,29.296875,-11.230469,-132.324219,6.867282
1760,-322.265625,33.691406,33.203125,40.527344,-72.753906,6.871188
1761,71.289062,19.042969,18.554688,78.125000,60.546875,6.875094
1762,397.949219,14.160156,12.695312,60.546875,75.683594,6.879000
1763,249.511719,28.808594,20.996094,7.324219,-2.929688,6.882907
1764,-204.589844,41.503906,30.761719,-13.183594,-57.617188,6.900097
1765,-357.910156,40.039062,35.156250,20.996094,-23.437500,6.904003
1766,2.441406,30.761719,25.390625,68.359375,71.289062,6.907909
1767,368.652344,20.996094,17.578125,62.988281,61.035156,6.911816
1768,279.785156,18.066406,19.042969,8.789062,-44.921875,6.915722
1769,-168.945312,29.785156,27.832031,-11.230469,-112.304688,6.919628
1770,-374.023438,41.992188,34.179688,18.066406,-59.082031,6.923534
1771,-64.941406,32.226562,25.390625,61.523438,37.597656,6.927441
1772,334.960938,25.390625,19.042969,65.917969,20.507812,6.931347
1773,314.453125,26.367188,20.019531,9.765625,-43.945312,6.935253
1774,-128.906250,33.203125,28.320312,-21.484375,-88.378906,6.939159
1775,-393.554688,37.597656,38.085938,5.859375,-68.847656,6.943066
1776,-127.929688,24.414062,32.714844,52.734375,27.832031,6.940223
1777,305.175781,13.671875,21.484375,62.988281,64.453125,6.944129
1778,347.167969,18.066406,23.437500,20.019531,6.347656,6.948036
1779,-67.871094,30.761719,29.785156,-18.554688,-63.964844,6.951942
1780,-375.488281,38.574219,35.644531,0.488281,-77.148438,6.955848
1781,-172.363281,31.250000,31.738281,52.734375,34.667969,6.959754
1782,285.156250,22.460938,22.949219,68.847656,91.308594,6.963661
1783,393.554688,23.925781,25.390625,26.367188,19.042969,6.967567
1784,8.300781,33.203125,29.785156,-17.089844,-62.011719,6.971473
1785,-337.402344,42.480469,36.132812,-1.464844,-37.597656,6.975379
1786,-195.800781,36.621094,35.156250,47.363281,58.105469,6.979286
1787,265.136719,27.832031,20.996094,69.335938,106.445312,6.983192
1788,428.710938,20.996094,17.089844,29.296875,72.753906,6.982666
1789,84.960938,25.390625,25.878906,-18.066406,-13.183594,6.986573
1790,-306.640625,35.644531,36.621094,-6.835938,-51.757812,6.990479
1791,-249.511719,37.109375,35.156250,37.597656,47.363281,6.994385
1792,196.777344,30.273438,20.996094,62.988281,160.644531,6.998291
1793,417.480469,21.484375,16.601562,34.179688,68.847656,7.002198
1794,125.976562,27.343750,26.855469,-13.183594,-52.734375,7.006104
1795,-299.316406,36.621094,37.597656,-13.671875,-34.179688,7.010010
1796,-297.851562,26.855469,34.179688,42.480469,38.574219,7.013916
1797,148.925781,12.207031,25.878906,90.820312,89.355469,7.017823
1798,413.574219,13.671875,20.019531,55.664062,38.574219,7.021729
1799,167.968750,31.250000,21.484375,-19.531250,-39.062500,7.025635
1800,-273.437500,41.015625,27.343750,-31.738281,-61.523438,7.045357
1801,-329.589844,31.738281,25.878906,20.019531,8.789062,7.049263
1802,92.773438,22.460938,17.578125,66.894531,102.539062,7.053169
1803,419.921875,20.996094,10.253906,53.222656,83.007812,7.057076
1804,255.371094,29.296875,9.765625,3.417969,-30.273438,7.060982
1805,-195.800781,48.828125,16.601562,-9.277344,-90.332031,7.064888
1806,-319.335938,53.710938,20.507812,33.691406,-60.546875,7.068794
1807,64.941406,38.574219,15.625000,77.148438,62.011719,7.072701
1808,424.316406,26.367188,5.371094,60.058594,105.468750,7.076607
1809,304.687500,25.390625,2.929688,3.906250,13.671875,7.080513
1810,-147.949219,39.062500,13.671875,-16.601562,-38.574219,7.084419
1811,-327.148438,39.062500,16.601562,16.113281,16.113281,7.088326
1812,2.441406,29.785156,8.789062,63.964844,116.699219,7.080074
1813,401.367188,28.808594,0.976562,62.011719,132.812500,7.083980
1814,358.886719,26.855469,8.300781,11.230469,47.851562,7.087887
1815,-100.097656,33.691406,18.066406,-13.183594,-20.019531,7.091793
1816,-341.308594,40.527344,19.531250,18.066406,-24.414062,7.095699
1817,-58.105469,33.691406,18.066406,68.847656,59.570312,7.099605
1818,356.445312,20.507812,8.300781,69.335938,104.492188,7.103512
1819,367.675781,22.460938,7.324219,19.531250,-17.089844,7.107418
1820,-66.406250,37.597656,18.066406,-16.113281,-94.726562,7.111324
1821,-363.769531,48.828125,27.832031,5.859375,-68.847656,7.115230
1822,-143.554688,38.574219,23.437500,53.222656,6.347656,7.119137
1823,295.410156,18.066406,8.789062,55.175781,62.988281,7.123043
1824,371.582031,20.019531,5.859375,7.324219,10.742188,7.120174
1825,-21.972656,37.109375,15.136719,-27.343750,-66.894531,7.124081
1826,-359.863281,40.039062,27.832031,-6.347656,-50.781250,7.127987
1827,-206.542969,22.460938,27.343750,44.433594,59.570312,7.131893
1828,253.417969,17.089844,13.671875,64.941406,101.562500,7.135799
1829,402.343750,25.878906,13.183594,34.179688,7.324219,7.139706
1830,41.992188,30.761719,22.460938,-5.371094,-60.546875,7.143612
1831,-326.171875,38.574219,29.296875,4.394531,-49.804688,7.147518
1832,-223.632812,31.250000,28.808594,56.640625,11.230469,7.151424
1833,227.539062,16.601562,17.089844,81.542969,100.097656,7.155331
1834,427.246094,21.972656,13.183594,47.363281,57.128906,7.159237
1835,118.164062,36.621094,20.019531,-2.441406,-65.917969,7.163143
1836,-283.691406,45.410156,32.226562,3.906250,-69.824219,7.180233
1837,-257.324219,39.550781,31.250000,53.710938,31.250000,7.184139
1838,179.687500,25.390625,18.554688,80.078125,99.121094,7.188046
